COUNTER,AF3,F7,F3, FC5, T7, P7, O1, O2,P8, T8, FC6, F4,F8, AF4,GYROX, GYROY, TIMESTAMP, FUNC_ID, FUNC_VALUE, MARKER, SYNC_SIGNAL,
2,4177.44,4088.72,4507.69,4144.62,3891.28,4334.36,4073.85,4482.56,4278.46,3908.21,4810.26,4233.33,4203.08,4413.85,1617,1595,70.394,0,0,0,0,
3,4192.31,4100,4521.03,4143.08,3895.9,4341.03,4084.1,4501.54,4301.54,3929.74,4819.49,4253.33,4211.79,4432.82,1617,1597,70.402,0,0,0,0,
4,4185.64,4084.62,4512.31,4115.9,3883.08,4335.9,4081.03,4489.74,4295.9,3925.13,4815.38,4250.26,4206.67,4432.31,1618,1597,70.41,0,0,0,0,
5,4177.95,4073.85,4503.59,4119.49,3881.54,4324.62,4072.82,4470.26,4269.23,3904.62,4809.74,4235.9,4208.72,4416.92,1618,1597,70.418,0,0,0,0,
6,4183.08,4084.62,4506.67,4141.54,3895.38,4320.51,4071.28,4477.44,4269.74,3900,4813.33,4234.36,4213.33,4413.85,1619,1596,70.426,0,0,0,0,
7,4176.92,4091.28,4498.46,4131.79,3897.95,4321.54,4066.67,4477.95,4279.49,3909.23,4811.79,4233.85,4205.13,4415.38,1619,1595,70.433,0,0,0,0,
8,4158.97,4072.31,4483.08,4113.33,3883.08,4316.92,4060,4461.03,4275.38,3910.26,4792.82,4221.54,4188.21,4398.46,1619,1594,70.442,0,0,0,0,
9,4158.97,4056.41,4487.69,4122.56,3873.33,4315.38,4068.21,4467.69,4277.44,3907.18,4794.87,4222.05,4188.72,4396.41,1617,1593,70.449,0,0,0,0,
10,4173.33,4066.15,4498.46,4128.72,3875.9,4322.56,4078.97,4483.59,4282.05,3917.44,4820,4236.92,4204.62,4416.41,1618,1591,70.457,0,0,0,0,
11,4174.36,4079.49,4495.38,4124.1,3889.74,4329.74,4076.92,4470.77,4271.28,3920,4814.36,4238.97,4197.44,4417.44,1617,1591,70.465,0,0,0,0,
12,4160.51,4078.97,4489.23,4127.18,3889.74,4320.51,4066.15,4453.85,4259.49,3898.97,4790.26,4222.56,4172.31,4401.54,1617,1592,70.473,0,0,0,0,
13,4151.79,4064.62,4490.77,4124.1,3870.26,4306.67,4053.85,4455.9,4260.51,3889.23,4791.28,4216.41,4171.79,4397.44,1616,1593,70.48,0,0,0,0,
14,4152.82,4060.51,4488.21,4122.56,3881.54,4314.36,4051.79,4457.95,4265.64,3904.1,4800,4221.54,4186.15,4400,1616,1593,70.488,0,0,0,0,
15,4164.1,4079.49,4483.59,4139.49,3904.1,4321.54,4060,4458.46,4266.15,3907.69,4801.03,4226.67,4185.13,4402.05,1617,1592,70.496,0,0,0,0,
16,4168.72,4083.08,4482.56,4142.05,3886.15,4313.33,4065.13,4462.56,4264.1,3895.38,4798.97,4225.64,4175.9,4399.49,1615,1593,70.504,0,0,0,0,
17,4160.51,4065.64,4481.03,4127.18,3874.36,4313.85,4062.05,4458.97,4259.49,3890.26,4791.79,4217.44,4168.21,4392.31,1617,1592,70.512,0,0,0,0,
18,4162.56,4074.36,4489.23,4136.92,3901.54,4328.72,4066.67,4457.95,4267.69,3905.64,4791.79,4223.59,4175.9,4402.56,1615,1593,70.519,0,0,0,0,
19,4173.85,4091.28,4501.54,4151.79,3906.15,4328.72,4068.21,4463.59,4279.49,3912.31,4798.97,4232.82,4190.26,4411.79,1616,1594,70.527,0,0,0,0,
20,4171.79,4086.15,4498.97,4142.05,3887.69,4317.44,4062.56,4460.51,4270.26,3901.54,4803.08,4226.15,4186.15,4405.13,1616,1593,70.535,0,0,0,0,
21,4164.62,4085.13,4489.23,4133.33,3893.33,4317.95,4069.23,4453.33,4260,3901.03,4802.05,4217.44,4174.87,4402.05,1617,1595,70.544,0,0,0,0,
22,4168.21,4086.67,4490.26,4141.54,3894.87,4325.64,4077.95,4455.38,4274.87,3913.85,4798.46,4218.46,4188.72,4404.62,1616,1595,70.552,0,0,0,0,
23,4168.21,4075.38,4496.41,4143.59,3872.82,4316.92,4066.67,4455.9,4284.1,3915.38,4795.9,4218.97,4205.64,4401.54,1617,1595,70.559,0,0,0,0,
24,4165.13,4071.28,4501.54,4136.92,3876.92,4309.74,4062.56,4456.41,4277.44,3905.64,4794.87,4220,4194.87,4402.56,1617,1594,70.566,0,0,0,0,
25,4165.64,4079.49,4505.13,4141.54,3898.97,4319.49,4074.87,4460.51,4276.92,3905.13,4794.36,4223.59,4179.49,4406.67,1616,1594,70.574,0,0,0,0,
26,4165.13,4084.1,4505.64,4153.33,3895.38,4322.05,4069.23,4454.36,4266.15,3903.08,4797.44,4221.54,4185.64,4404.62,1618,1591,70.582,0,0,0,0,
27,4170.26,4091.28,4511.28,4159.49,3888.21,4316.92,4064.1,4451.79,4265.64,3911.79,4811.79,4228.21,4203.59,4412.82,1619,1592,70.59,0,0,0,0,
28,4173.33,4094.87,4514.87,4158.97,3898.97,4326.15,4075.9,4462.56,4286.67,3926.15,4815.9,4234.36,4207.69,4419.49,1619,1591,70.598,0,0,0,0,
29,4166.67,4084.1,4510.26,4153.33,3898.97,4329.74,4072.82,4461.54,4282.56,3917.95,4798.46,4227.69,4198.46,4409.23,1618,1592,70.606,0,0,0,0,
30,4166.15,4077.95,4516.41,4139.49,3889.74,4320,4064.62,4456.92,4278.46,3916.92,4800.51,4229.23,4202.56,4411.79,1619,1592,70.613,0,0,0,0,
31,4173.33,4083.08,4526.15,4135.38,3896.92,4321.03,4073.85,4471.28,4310.77,3941.54,4824.1,4235.9,4215.9,4428.72,1619,1592,70.621,0,0,0,0,
32,4170.77,4081.03,4524.1,4151.28,3900.51,4329.23,4079.49,4478.97,4323.59,3947.18,4823.59,4232.82,4213.33,4428.72,1621,1594,70.63,0,0,0,0,
33,4164.62,4073.85,4520,4157.95,3883.08,4330.26,4072.82,4468.72,4299.49,3926.15,4803.08,4232.31,4202.56,4414.87,1619,1594,70.637,0,0,0,0,
34,4167.69,4074.87,4521.03,4145.64,3872.31,4326.15,4069.23,4458.97,4288.21,3920,4797.44,4227.69,4201.54,4409.74,1620,1596,70.645,0,0,0,0,
35,4171.79,4083.59,4522.05,4143.59,3885.13,4328.21,4073.33,4461.54,4290.26,3926.67,4804.62,4218.46,4207.69,4411.28,1620,1596,70.652,0,0,0,0,
36,4172.31,4086.67,4523.08,4158.46,3899.49,4336.41,4078.46,4471.79,4293.33,3936.41,4812.31,4225.13,4215.9,4414.87,1619,1597,70.661,0,0,0,0,
37,4169.23,4077.44,4524.1,4157.44,3898.97,4331.79,4075.38,4471.79,4298.97,3947.18,4811.28,4233.33,4215.9,4412.82,1620,1596,70.668,0,0,0,0,
38,4164.62,4068.21,4520.51,4142.05,3892.82,4325.64,4071.79,4463.59,4295.9,3936.41,4797.95,4222.05,4206.15,4406.67,1618,1596,70.676,0,0,0,0,
39,4164.62,4076.41,4518.46,4146.15,3892.82,4331.28,4076.92,4462.56,4293.85,3927.18,4798.97,4218.46,4209.74,4413.85,1619,1596,70.684,0,0,0,0,
40,4170.77,4089.74,4522.05,4158.46,3896.92,4331.79,4075.9,4463.59,4294.36,3933.33,4812.82,4231.79,4217.44,4423.08,1618,1595,70.692,0,0,0,0,
41,4179.49,4089.23,4524.62,4155.38,3898.46,4325.64,4074.36,4461.03,4299.49,3938.97,4814.36,4233.85,4214.36,4420,1617,1595,70.7,0,0,0,0,
42,4192.82,4088.21,4524.62,4155.9,3893.85,4326.67,4084.1,4472.31,4324.1,3952.82,4817.95,4230.77,4225.13,4422.56,1617,1593,70.707,0,0,0,0,
43,4200,4092.82,4525.64,4160.51,3890.26,4326.15,4082.56,4480.51,4325.13,3963.59,4822.56,4235.9,4235.9,4431.28,1616,1593,70.715,0,0,0,0,
44,4192.31,4088.72,4525.13,4152.82,3890.26,4318.97,4068.21,4469.74,4296.41,3944.62,4811.28,4233.85,4219.49,4429.74,1616,1593,70.723,0,0,0,0,
45,4179.49,4077.95,4517.44,4146.67,3893.33,4316.41,4061.54,4458.46,4293.85,3931.79,4807.18,4225.64,4213.85,4421.03,1616,1594,70.731,0,0,0,0,
46,4181.54,4081.03,4511.79,4154.87,3903.08,4330.26,4066.15,4460,4310.77,3952.31,4816.41,4227.69,4241.54,4421.54,1617,1592,70.739,0,0,0,0,
47,4196.92,4093.85,4516.92,4158.97,3906.67,4340,4069.74,4464.62,4304.1,3962.05,4816.41,4230.77,4256.41,4424.1,1618,1593,70.747,0,0,0,0,
48,4196.41,4095.9,4522.05,4154.87,3905.13,4330.26,4064.62,4453.33,4281.54,3944.1,4807.18,4222.56,4242.56,4418.46,1618,1594,70.755,0,0,0,0,
49,4188.72,4091.28,4520.51,4160,3903.59,4328.21,4060,4443.59,4280,3932.82,4810.26,4223.59,4238.46,4421.54,1619,1595,70.762,0,0,0,0,
50,4198.46,4090.26,4523.08,4175.38,3902.05,4332.82,4068.21,4464.62,4306.67,3951.79,4825.64,4246.15,4256.92,4442.56,1619,1596,70.77,0,0,0,0,
51,4208.72,4085.13,4529.74,4178.46,3897.44,4318.97,4071.28,4479.49,4329.23,3975.9,4833.85,4254.36,4270.26,4449.23,1619,1596,70.778,0,0,0,0,
52,4201.54,4076.41,4522.05,4165.64,3892.31,4302.56,4061.03,4457.44,4312.31,3969.23,4820,4234.36,4265.64,4428.21,1619,1595,70.785,0,0,0,0,
53,4198.46,4077.44,4508.21,4165.64,3894.36,4308.21,4061.03,4445.13,4290.77,3951.28,4809.74,4225.64,4260.51,4419.49,1619,1595,70.793,0,0,0,0,
54,4204.62,4081.03,4504.62,4185.13,3894.36,4322.56,4074.87,4461.54,4296.92,3952.31,4818.46,4233.33,4263.08,4428.21,1619,1594,70.801,0,0,0,0,
55,4203.08,4078.46,4505.64,4201.03,3894.36,4328.72,4079.49,4468.21,4305.13,3961.54,4818.97,4230.77,4264.62,4426.67,1618,1595,70.809,0,0,0,0,
56,4196.41,4076.92,4505.64,4202.05,3902.05,4326.67,4073.33,4461.03,4309.74,3965.13,4812.82,4222.05,4261.54,4417.95,1619,1595,70.817,0,0,0,0,
57,4189.74,4072.82,4499.49,4198.97,3912.31,4322.05,4066.67,4456.92,4304.1,3960,4808.21,4213.85,4258.46,4410.77,1617,1598,70.824,0,0,0,0,
58,4189.74,4067.69,4497.44,4200,3914.87,4322.56,4062.05,4455.9,4295.9,3956.92,4807.18,4213.85,4265.13,4412.31,1618,1599,70.832,0,0,0,0,
59,4207.69,4072.31,4505.13,4203.08,3914.87,4319.49,4061.54,4456.92,4298.97,3964.62,4818.46,4228.72,4282.05,4424.62,1617,1597,70.84,0,0,0,0,
60,4218.97,4077.95,4509.23,4211.28,3911.28,4310.77,4062.56,4462.56,4305.64,3977.44,4829.74,4238.97,4287.18,4430.77,1616,1596,70.849,0,0,0,0,
61,4209.23,4072.82,4503.59,4214.87,3909.74,4314.36,4061.03,4464.62,4304.1,3977.44,4826.15,4233.33,4283.08,4426.67,1616,1594,70.856,0,0,0,0,
62,4205.13,4072.31,4502.05,4215.9,3921.03,4318.97,4058.97,4460,4295.38,3962.05,4824.1,4230.26,4282.05,4427.18,1616,1593,70.864,0,0,0,0,
63,4213.33,4077.44,4510.26,4223.59,3918.46,4313.33,4061.54,4455.9,4290.77,3960,4829.23,4234.87,4271.28,4433.85,1616,1592,70.871,0,0,0,0,
64,4215.9,4071.79,4511.28,4220.51,3911.28,4311.79,4068.72,4459.49,4296.92,3972.82,4824.1,4235.38,4251.79,4440,1616,1593,70.879,0,0,0,0,
65,4215.38,4067.18,4506.67,4211.28,3921.54,4315.38,4069.23,4461.54,4307.18,3976.41,4822.05,4235.9,4247.18,4443.08,1616,1594,70.888,0,0,0,0,
66,4216.92,4071.28,4507.18,4225.13,3919.49,4309.23,4062.05,4457.44,4308.21,3975.38,4827.18,4235.38,4251.28,4438.46,1616,1594,70.895,0,0,0,0,
67,4214.36,4077.44,4504.62,4239.49,3913.33,4309.74,4059.49,4457.44,4307.18,3979.49,4821.54,4231.79,4248.72,4435.9,1617,1593,70.903,0,0,0,0,
68,4217.95,4076.41,4495.9,4226.15,3933.33,4318.97,4063.59,4456.41,4303.59,3971.79,4814.87,4233.85,4246.15,4438.46,1616,1593,70.91,0,0,0,0,
69,4220,4069.23,4489.74,4210.26,3942.56,4316.41,4058.97,4445.13,4292.31,3963.59,4815.38,4231.28,4243.08,4434.87,1618,1593,70.918,0,0,0,0,
70,4207.69,4065.13,4490.26,4216.92,3920,4310.77,4049.74,4437.95,4287.69,3968.21,4816.92,4217.95,4235.9,4426.15,1616,1594,70.926,0,0,0,0,
71,4205.13,4068.21,4492.31,4232.82,3906.15,4311.28,4050.26,4445.13,4294.36,3972.82,4816.92,4215.9,4233.33,4427.18,1617,1594,70.934,0,0,0,0,
72,4212.82,4065.13,4491.79,4228.21,3908.72,4309.74,4051.28,4446.67,4297.44,3973.85,4808.21,4224.1,4229.74,4428.72,1617,1593,70.942,0,0,0,0,
73,4213.85,4059.49,4490.77,4212.31,3913.33,4308.21,4047.69,4443.08,4289.74,3974.36,4801.54,4222.05,4222.56,4422.05,1616,1593,70.95,0,0,0,0,
74,4216.41,4069.23,4490.26,4219.49,3922.56,4308.72,4053.85,4451.79,4288.72,3976.41,4811.28,4218.97,4228.72,4423.59,1616,1592,70.957,0,0,0,0,
75,4215.9,4076.41,4490.77,4237.44,3932.82,4310.26,4055.9,4451.79,4286.67,3968.72,4812.31,4223.59,4236.92,4425.64,1616,1592,70.965,0,0,0,0,
76,4207.69,4069.74,4489.74,4230.77,3936.41,4311.79,4047.69,4437.44,4277.44,3964.1,4803.08,4222.05,4232.82,4418.97,1616,1592,70.973,0,0,0,0,
77,4206.67,4069.23,4488.72,4215.38,3924.1,4305.13,4050.77,4438.46,4276.92,3977.44,4808.72,4217.44,4226.15,4418.97,1615,1591,70.981,0,0,0,0,
78,4215.9,4077.95,4485.13,4217.44,3907.69,4297.44,4057.95,4445.13,4276.92,3980.51,4811.28,4217.95,4222.05,4424.1,1617,1591,70.989,0,0,0,0,
79,4217.95,4076.92,4477.44,4220.51,3911.79,4301.54,4048.72,4434.87,4264.1,3960.51,4798.97,4216.92,4215.9,4417.44,1616,1591,70.996,0,0,0,0,
80,4210.77,4062.05,4473.33,4212.82,3923.08,4311.28,4043.59,4426.15,4255.9,3950.26,4790.26,4211.79,4213.33,4407.69,1617,1592,71.004,0,0,0,0,
81,4204.62,4059.49,4471.79,4210.77,3929.23,4315.38,4051.28,4427.69,4263.08,3956.92,4787.69,4208.72,4213.33,4408.21,1616,1592,71.012,0,0,0,0,
82,4214.87,4082.05,4476.92,4227.69,3940.51,4309.74,4049.74,4431.79,4274.87,3969.23,4797.44,4215.9,4214.87,4417.95,1617,1596,71.02,0,0,0,0,
83,4229.23,4094.36,4488.21,4235.9,3942.56,4304.1,4047.18,4443.59,4287.18,3986.67,4811.79,4231.28,4221.03,4428.72,1618,1596,71.028,0,0,0,0,
84,4231.79,4082.05,4494.87,4221.03,3918.97,4307.69,4056.41,4449.23,4278.97,3980,4803.59,4235.9,4220,4428.72,1618,1596,71.036,0,0,0,0,
85,4231.28,4077.95,4491.79,4212.82,3908.21,4311.79,4058.97,4442.56,4258.97,3965.64,4792.31,4229.23,4215.9,4424.1,1618,1595,71.043,0,0,0,0,
86,4225.13,4078.46,4481.54,4216.92,3924.1,4306.67,4051.79,4445.64,4260.51,3973.33,4798.46,4221.54,4213.33,4420.51,1618,1595,71.051,0,0,0,0,
87,4212.31,4067.18,4475.9,4217.95,3930.77,4310.26,4051.28,4448.21,4267.18,3976.41,4801.54,4220.51,4212.82,4414.87,1619,1595,71.059,0,0,0,0,
88,4213.85,4070.26,4485.64,4216.41,3925.64,4320.51,4057.95,4444.62,4265.13,3973.85,4796.92,4228.21,4217.95,4418.46,1617,1595,71.067,0,0,0,0,
89,4221.54,4083.59,4495.9,4217.95,3927.69,4321.03,4061.54,4452.82,4271.28,3988.21,4797.44,4231.28,4220.51,4426.15,1618,1597,71.075,0,0,0,0,
90,4216.92,4073.85,4486.67,4215.38,3928.21,4316.41,4061.54,4464.1,4283.08,4000,4797.44,4226.15,4211.28,4422.56,1618,1598,71.083,0,0,0,0,
91,4216.92,4067.18,4475.9,4216.92,3922.05,4318.46,4062.56,4456.92,4278.46,3991.28,4798.46,4222.56,4206.15,4417.44,1618,1598,71.091,0,0,0,0,
92,4229.74,4087.69,4478.46,4226.15,3932.31,4324.62,4058.97,4440.51,4265.13,3978.46,4806.67,4222.05,4217.95,4420,1617,1597,71.098,0,0,0,0,
93,4233.85,4100,4477.44,4226.67,3953.33,4320,4051.28,4431.28,4259.49,3981.54,4804.1,4216.41,4220,4417.44,1617,1597,71.106,0,0,0,0,
94,4231.79,4092.82,4475.38,4219.49,3946.67,4311.28,4050.26,4436.41,4260.51,3990.77,4800.51,4214.87,4212.31,4418.97,1618,1596,71.115,0,0,0,0,
95,4230.26,4087.18,4480.51,4218.46,3921.03,4314.36,4060,4453.85,4269.74,3989.74,4807.18,4223.59,4213.85,4426.67,1616,1597,71.122,0,0,0,0,
96,4226.67,4080,4483.08,4214.36,3904.1,4317.95,4065.64,4458.46,4280.51,3985.13,4807.69,4228.21,4210.77,4423.08,1617,1598,71.129,0,0,0,0,
97,4217.95,4069.23,4472.82,4203.08,3905.13,4310.26,4055.38,4449.23,4279.49,3989.74,4798.97,4223.59,4200,4414.36,1617,1596,71.137,0,0,0,0,
98,4206.15,4062.56,4460,4196.41,3922.05,4311.79,4045.13,4452.31,4276.41,3994.36,4796.41,4216.92,4197.44,4409.23,1617,1596,71.145,0,0,0,0,
99,4201.03,4060,4456.92,4198.46,3928.21,4322.56,4051.79,4461.03,4278.97,3993.85,4797.44,4216.41,4194.87,4410.26,1617,1595,71.153,0,0,0,0,
100,4209.74,4063.08,4466.67,4203.59,3910.77,4317.95,4062.05,4462.56,4279.49,3997.44,4801.03,4224.62,4197.95,4419.49,1617,1595,71.161,0,0,0,0,
101,4221.03,4066.67,4479.49,4203.59,3907.69,4309.23,4058.46,4458.46,4270.26,3995.38,4807.18,4236.41,4207.69,4427.69,1617,1596,71.17,0,0,0,0,
102,4215.38,4058.46,4473.85,4193.85,3923.08,4313.33,4049.74,4445.64,4251.28,3977.95,4796.41,4229.23,4193.85,4417.95,1618,1597,71.176,0,0,0,0,
103,4208.21,4054.36,4462.56,4191.28,3914.36,4312.31,4048.21,4434.36,4247.69,3975.38,4789.23,4213.33,4177.95,4406.15,1617,1597,71.184,0,0,0,0,
104,4215.9,4068.72,4470.26,4207.18,3904.1,4308.21,4055.9,4442.56,4264.1,3993.33,4799.49,4216.92,4193.33,4413.33,1618,1597,71.192,0,0,0,0,
105,4215.9,4070.26,4475.9,4212.31,3920.51,4323.08,4059.49,4450.77,4261.03,3990.77,4796.41,4220,4195.38,4414.87,1618,1595,71.2,0,0,0,0,
106,4210.26,4058.97,4469.74,4200,3930.26,4330.26,4052.82,4444.1,4245.64,3975.9,4785.13,4213.85,4172.31,4406.15,1619,1593,71.208,0,0,0,0,
107,4211.79,4065.64,4471.28,4194.36,3926.67,4313.33,4050.26,4438.46,4249.23,3983.59,4789.23,4215.38,4173.85,4407.18,1618,1593,71.215,0,0,0,0,
108,4219.49,4073.85,4480,4199.49,3920.51,4304.1,4055.38,4448.72,4261.03,3998.97,4800,4221.03,4194.36,4411.28,1620,1592,71.224,0,0,0,0,
109,4217.95,4062.05,4473.33,4203.08,3910.77,4313.33,4057.95,4462.56,4271.28,4007.18,4801.54,4218.97,4194.36,4406.67,1618,1593,71.231,0,0,0,0,
110,4203.08,4050.26,4463.08,4192.82,3914.87,4316.92,4048.72,4455.38,4269.23,4005.64,4793.85,4213.33,4185.13,4398.97,1619,1594,71.239,0,0,0,0,
111,4203.08,4061.03,4469.74,4193.85,3932.31,4314.36,4043.08,4436.41,4247.18,3997.95,4788.72,4219.49,4183.59,4407.69,1618,1594,71.247,0,0,0,0,
112,4223.59,4075.9,4479.49,4204.1,3926.15,4311.79,4053.33,4444.1,4246.15,4004.1,4802.05,4234.87,4188.72,4426.15,1618,1596,71.255,0,0,0,0,
113,4225.64,4069.74,4472.82,4193.33,3902.56,4309.23,4062.05,4458.46,4267.69,4013.85,4814.36,4237.95,4193.85,4431.28,1618,1595,71.262,0,0,0,0,
114,4217.44,4061.54,4466.67,4183.08,3912.82,4316.41,4054.36,4449.74,4270.77,4014.36,4810.26,4230.77,4195.38,4424.62,1617,1596,71.27,0,0,0,0,
115,4230.77,4073.33,4472.82,4200.51,3931.28,4321.54,4047.69,4442.05,4264.1,4017.44,4811.28,4233.33,4201.54,4426.15,1619,1596,71.278,0,0,0,0,
116,4233.33,4079.49,4469.74,4207.69,3919.49,4312.82,4052.31,4448.21,4262.56,4014.87,4811.28,4232.82,4201.54,4424.1,1618,1596,71.286,0,0,0,0,
117,4213.85,4062.05,4456.92,4185.13,3912.31,4306.15,4047.18,4447.18,4254.36,3995.9,4799.49,4218.46,4187.69,4406.67,1618,1596,71.294,0,0,0,0,
118,4206.67,4054.36,4453.85,4174.36,3918.46,4307.69,4040.51,4437.95,4241.54,3985.13,4790.26,4210.77,4175.38,4398.97,1618,1596,71.301,0,0,0,0,
119,4212.31,4063.08,4463.08,4185.13,3916.41,4314.36,4050.26,4443.08,4246.15,4000.51,4797.44,4218.97,4182.56,4409.23,1620,1594,71.309,0,0,0,0,
120,4214.87,4064.1,4473.85,4193.33,3910.77,4322.05,4060.51,4456.92,4264.62,4018.46,4807.69,4229.23,4195.38,4416.92,1618,1593,71.317,0,0,0,0,
121,4211.28,4056.92,4473.85,4186.15,3908.21,4319.49,4058.46,4460,4266.67,4013.33,4805.13,4230.26,4189.74,4412.31,1619,1595,71.325,0,0,0,0,
122,4206.15,4060,4470.77,4177.95,3911.28,4311.79,4056.41,4458.46,4254.87,4007.69,4793.85,4228.72,4183.08,4408.72,1618,1595,71.333,0,0,0,0,
123,4211.28,4069.74,4477.95,4191.28,3923.59,4317.44,4058.46,4459.49,4256.41,4017.95,4792.31,4231.79,4189.23,4417.95,1618,1597,71.341,0,0,0,0,
124,4215.9,4066.67,4482.05,4200,3924.1,4320.51,4058.97,4454.36,4264.62,4017.95,4800,4232.31,4195.38,4426.15,1618,1596,71.349,0,0,0,0,
125,4211.79,4061.03,4478.46,4184.1,3912.31,4318.97,4062.05,4450.77,4257.95,4007.69,4799.49,4229.23,4193.33,4420.51,1617,1595,71.356,0,0,0,0,
126,4215.9,4070.26,4485.13,4180,3916.41,4326.67,4063.59,4455.9,4248.72,4004.1,4794.87,4226.67,4191.28,4412.31,1618,1594,71.364,0,0,0,0,
127,4216.92,4072.82,4491.79,4189.23,3918.97,4324.1,4049.23,4446.67,4249.74,4004.1,4794.36,4221.03,4188.21,4411.79,1618,1594,71.372,0,0,0,0,
128,4200.51,4058.46,4486.15,4178.46,3907.18,4310.77,4036.41,4429.74,4249.23,4002.05,4792.82,4216.41,4180.51,4413.33,1618,1594,71.381,0,0,0,0,
0,4198.97,4057.44,4486.15,4164.62,3911.28,4315.9,4046.67,4436.41,4252.31,4003.08,4794.36,4217.44,4181.54,4418.97,1619,1594,71.387,0,0,0,0,
1,4215.38,4064.1,4493.85,4173.85,3926.67,4330.77,4055.38,4448.72,4263.08,4012.31,4796.41,4221.03,4186.67,4428.21,1618,1595,71.395,0,0,0,0,
2,4216.92,4058.97,4491.79,4183.59,3924.62,4323.59,4048.21,4445.13,4264.1,4016.41,4793.33,4224.1,4182.05,4427.18,1618,1595,71.403,0,0,0,0,
3,4212.82,4063.59,4495.38,4186.67,3912.31,4310.77,4051.79,4451.28,4255.38,4013.33,4793.85,4230.26,4183.08,4423.59,1618,1597,71.411,0,0,0,0,
4,4216.92,4067.69,4507.18,4182.56,3901.03,4314.87,4064.1,4462.56,4252.31,4014.87,4802.56,4235.9,4194.36,4428.72,1617,1597,71.419,0,0,0,0,
5,4210.26,4051.28,4500.51,4172.82,3898.46,4321.03,4058.46,4449.74,4242.56,4014.87,4802.05,4232.82,4192.82,4428.72,1616,1597,71.427,0,0,0,0,
6,4205.64,4052.82,4487.18,4177.44,3912.31,4321.54,4050.77,4437.95,4235.38,4007.18,4793.85,4228.72,4178.46,4422.56,1617,1595,71.434,0,0,0,0,
7,4222.56,4086.15,4496.41,4200.51,3931.28,4325.13,4057.44,4451.79,4251.28,4014.36,4799.49,4231.28,4183.08,4431.79,1615,1595,71.443,0,0,0,0,
8,4236.92,4098.46,4510.26,4206.67,3932.31,4330.77,4056.92,4454.87,4254.87,4024.1,4801.54,4234.87,4193.33,4441.54,1617,1594,71.45,0,0,0,0,
9,4229.23,4081.03,4506.15,4184.62,3928.21,4328.72,4048.72,4438.46,4241.54,4018.46,4795.9,4233.33,4185.64,4432.31,1616,1593,71.458,0,0,0,0,
10,4220,4073.85,4503.59,4172.82,3926.67,4324.62,4052.31,4441.54,4246.67,4028.21,4804.1,4232.82,4182.56,4426.15,1616,1594,71.466,0,0,0,0,
11,4217.95,4077.44,4503.08,4183.08,3915.38,4329.74,4061.54,4457.95,4255.38,4041.54,4810.26,4234.87,4188.21,4433.33,1616,1593,71.473,0,0,0,0,
12,4216.92,4076.92,4498.46,4189.23,3911.28,4335.9,4062.56,4458.97,4251.79,4029.74,4798.46,4234.36,4187.18,4430.77,1617,1593,71.481,0,0,0,0,
13,4216.92,4074.36,4499.49,4183.59,3924.1,4328.72,4055.38,4455.38,4261.54,4028.72,4798.97,4236.41,4184.1,4425.13,1617,1594,71.489,0,0,0,0,
14,4220,4074.87,4507.69,4183.08,3931.79,4316.41,4048.72,4460,4271.28,4040.51,4816.41,4245.64,4188.21,4437.44,1616,1596,71.497,0,0,0,0,
15,4226.67,4075.38,4506.15,4185.64,3920,4315.38,4050.77,4457.95,4257.95,4032.82,4815.38,4251.79,4190.77,4446.67,1616,1595,71.505,0,0,0,0,
16,4218.97,4067.18,4494.87,4177.95,3908.72,4324.1,4053.33,4445.13,4243.08,4019.49,4798.46,4236.92,4178.97,4427.69,1615,1596,71.513,0,0,0,0,
17,4200.51,4057.44,4487.69,4172.82,3920.51,4329.74,4051.28,4438.97,4243.08,4015.9,4786.15,4220,4165.13,4407.69,1616,1596,71.52,0,0,0,0,
18,4202.05,4060,4489.23,4170.26,3928.72,4327.69,4051.79,4445.64,4246.67,4020,4778.46,4223.59,4165.13,4415.9,1614,1597,71.528,0,0,0,0,
19,4212.31,4064.1,4491.28,4168.21,3911.28,4323.08,4056.41,4448.21,4251.79,4029.23,4782.56,4235.38,4171.28,4429.74,1616,1597,71.536,0,0,0,0,
20,4206.15,4062.05,4488.21,4174.87,3907.69,4323.08,4052.31,4441.54,4260.51,4031.28,4792.31,4231.79,4171.28,4425.64,1615,1595,71.544,0,0,0,0,
21,4198.46,4060.51,4486.67,4175.9,3925.13,4326.67,4045.13,4437.95,4262.56,4022.05,4787.18,4217.44,4166.15,4414.36,1616,1596,71.552,0,0,0,0,
22,4204.62,4060.51,4489.23,4164.1,3918.46,4329.23,4050.26,4440.51,4256.92,4023.08,4783.08,4218.46,4166.67,4408.21,1617,1595,71.56,0,0,0,0,
23,4212.82,4062.05,4489.74,4170.77,3911.79,4327.18,4063.08,4448.21,4261.54,4036.41,4796.92,4231.28,4171.79,4413.33,1617,1596,71.567,0,0,0,0,
24,4214.87,4063.59,4489.74,4187.69,3928.21,4325.13,4062.05,4455.38,4267.18,4038.97,4801.54,4234.87,4172.31,4422.05,1618,1597,71.575,0,0,0,0,
25,4216.41,4065.64,4496.92,4180,3929.23,4331.28,4055.9,4455.9,4260.51,4030.26,4789.23,4235.38,4172.82,4428.72,1618,1598,71.583,0,0,0,0,
26,4224.62,4072.31,4508.21,4166.15,3916.41,4338.46,4066.67,4458.97,4266.15,4035.9,4802.05,4247.69,4185.64,4437.95,1619,1597,71.591,0,0,0,0,
27,4230.26,4071.79,4510.77,4167.18,3912.31,4333.85,4076.41,4468.72,4288.21,4054.87,4822.56,4254.87,4193.85,4439.49,1618,1597,71.599,0,0,0,0,
28,4222.05,4062.05,4506.15,4169.74,3907.69,4326.15,4064.1,4467.69,4288.72,4060.51,4810.26,4243.08,4184.1,4427.18,1618,1597,71.606,0,0,0,0,
29,4211.28,4058.46,4505.64,4169.74,3916.41,4324.62,4054.87,4451.28,4263.08,4046.67,4795.9,4232.31,4177.44,4422.05,1618,1596,71.614,0,0,0,0,
30,4214.36,4062.56,4509.74,4172.82,3923.59,4328.21,4058.97,4438.97,4246.67,4028.72,4798.46,4234.87,4175.38,4427.18,1617,1595,71.622,0,0,0,0,
31,4218.97,4064.62,4509.23,4172.31,3905.13,4329.23,4055.38,4438.46,4252.31,4023.59,4799.49,4241.03,4168.72,4427.18,1618,1595,71.63,0,0,0,0,
32,4217.44,4068.72,4506.67,4170.26,3895.9,4320.51,4047.18,4442.05,4261.54,4037.44,4800,4246.67,4172.82,4432.82,1619,1593,71.638,0,0,0,0,
33,4218.46,4074.36,4507.69,4171.28,3910.77,4315.38,4049.23,4445.13,4265.13,4049.74,4803.59,4249.74,4186.15,4440,1619,1594,71.646,0,0,0,0,
34,4220,4070.77,4505.13,4173.33,3923.08,4326.67,4051.28,4445.64,4266.15,4048.72,4800.51,4244.1,4190.26,4430.26,1618,1594,71.653,0,0,0,0,
35,4215.38,4064.62,4491.28,4172.31,3920,4331.79,4049.23,4442.56,4264.62,4044.62,4794.87,4231.79,4179.49,4416.92,1618,1596,71.661,0,0,0,0,
36,4210.26,4066.67,4487.18,4171.79,3914.87,4318.97,4050.26,4443.08,4261.03,4043.08,4795.38,4228.21,4167.69,4417.95,1620,1596,71.669,0,0,0,0,
37,4216.41,4075.9,4505.13,4169.23,3915.38,4312.82,4057.95,4453.33,4266.67,4046.15,4801.03,4239.49,4170.26,4426.67,1618,1597,71.677,0,0,0,0,
38,4220.51,4074.87,4508.21,4164.1,3912.31,4319.49,4062.05,4463.08,4283.08,4058.97,4809.23,4248.21,4182.56,4429.23,1619,1596,71.685,0,0,0,0,
39,4215.9,4068.21,4489.74,4166.67,3901.54,4327.69,4060.51,4460,4292.82,4070.26,4812.82,4245.64,4185.64,4427.69,1618,1594,71.692,0,0,0,0,
40,4219.49,4072.82,4489.23,4175.38,3903.59,4336.92,4062.56,4455.9,4293.33,4070.77,4813.85,4244.1,4184.62,4429.74,1618,1594,71.7,0,0,0,0,
41,4221.03,4077.95,4505.64,4172.31,3913.85,4326.15,4060,4454.36,4288.72,4066.67,4816.92,4248.72,4187.18,4429.74,1618,1593,71.708,0,0,0,0,
42,4221.54,4079.49,4510.77,4168.21,3912.82,4308.72,4049.23,4447.18,4281.54,4061.54,4814.36,4251.79,4184.1,4429.74,1618,1594,71.716,0,0,0,0,
43,4228.72,4085.64,4507.18,4175.9,3917.95,4316.92,4047.18,4443.08,4282.56,4065.64,4812.31,4251.79,4183.59,4435.9,1619,1594,71.724,0,0,0,0,
44,4226.15,4088.72,4504.1,4179.49,3920,4324.1,4051.79,4445.64,4289.23,4072.31,4815.9,4250.77,4190.77,4435.38,1618,1596,71.732,0,0,0,0,
45,4221.54,4083.08,4505.64,4172.31,3906.67,4312.31,4050.26,4444.1,4288.72,4067.69,4815.38,4247.18,4189.23,4429.74,1619,1597,71.739,0,0,0,0,
46,4229.23,4079.49,4507.18,4170.26,3908.72,4313.85,4049.74,4442.56,4277.95,4063.59,4809.74,4249.23,4177.44,4435.38,1618,1598,71.747,0,0,0,0,
47,4227.69,4077.44,4496.92,4170.26,3913.85,4321.54,4051.28,4441.54,4271.79,4063.59,4808.72,4249.23,4167.69,4434.87,1619,1597,71.755,0,0,0,0,
48,4214.36,4074.36,4487.18,4165.64,3900,4315.9,4051.28,4444.62,4281.54,4067.69,4812.82,4241.54,4168.21,4427.18,1618,1596,71.852,0,0,0,0,
49,4215.38,4071.79,4484.1,4168.72,3900,4322.56,4057.44,4452.82,4290.26,4068.21,4809.23,4235.9,4168.21,4425.13,1619,1596,71.856,0,0,0,0,
50,4214.87,4065.64,4481.03,4168.72,3911.79,4331.79,4062.05,4458.97,4283.08,4061.03,4797.95,4235.9,4156.92,4421.03,1618,1594,71.856,0,0,0,0,
51,4202.56,4057.95,4480.51,4157.44,3906.67,4321.03,4060,4457.95,4276.92,4057.44,4796.41,4235.38,4147.69,4412.31,1619,1595,71.856,0,0,0,0,
52,4201.03,4063.08,4481.54,4161.03,3912.31,4315.9,4059.49,4452.31,4280,4060,4796.41,4231.79,4153.33,4411.79,1620,1595,71.856,0,0,0,0,
53,4204.1,4070.26,4476.92,4167.69,3927.18,4323.59,4055.9,4445.13,4282.56,4056.41,4785.13,4230.26,4154.87,4413.85,1619,1597,71.856,0,0,0,0,
54,4201.03,4062.56,4474.36,4155.38,3910.26,4325.64,4049.74,4442.56,4282.56,4051.28,4782.56,4228.72,4143.08,4409.74,1619,1597,71.856,0,0,0,0,
55,4199.49,4058.97,4483.08,4152.31,3884.1,4317.95,4055.9,4445.13,4279.49,4057.44,4793.85,4231.79,4141.03,4415.38,1619,1596,71.856,0,0,0,0,
56,4203.08,4069.74,4491.79,4168.21,3895.38,4313.85,4061.54,4448.21,4274.87,4068.21,4798.46,4240,4147.69,4427.69,1619,1596,71.856,0,0,0,0,
57,4204.1,4068.21,4493.33,4173.85,3917.44,4313.85,4055.38,4450.26,4273.85,4069.23,4798.46,4242.05,4145.64,4426.15,1618,1595,71.856,0,0,0,0,
58,4196.92,4055.9,4487.18,4164.1,3912.82,4312.31,4049.74,4449.23,4263.59,4055.38,4800.51,4236.41,4135.38,4414.87,1618,1594,71.856,0,0,0,0,
59,4186.15,4047.18,4477.95,4149.23,3891.28,4311.28,4044.62,4441.54,4245.13,4037.95,4787.18,4224.62,4128.72,4404.1,1618,1594,71.856,0,0,0,0,
60,4179.49,4042.05,4474.36,4144.62,3888.72,4312.31,4042.56,4443.08,4250.77,4043.08,4772.31,4217.44,4132.31,4398.46,1619,1595,71.859,0,0,0,0,
61,4183.08,4044.62,4475.38,4160,3898.46,4309.74,4052.82,4455.38,4274.87,4061.03,4785.13,4226.15,4136.41,4403.59,1619,1595,71.864,0,0,0,0,
62,4183.59,4049.23,4476.92,4163.08,3892.82,4309.74,4061.54,4454.87,4272.82,4061.03,4798.97,4230.77,4134.87,4409.23,1619,1596,71.872,0,0,0,0,
63,4180,4051.79,4475.9,4150.77,3898.46,4320.51,4058.46,4443.59,4258.46,4055.9,4790.77,4226.67,4134.36,4407.69,1620,1596,71.88,0,0,0,0,
64,4183.08,4055.9,4475.38,4150.77,3912.82,4323.08,4060,4443.59,4263.59,4060,4781.03,4227.69,4135.38,4406.67,1618,1597,71.888,0,0,0,0,
65,4184.62,4054.87,4474.87,4154.87,3902.05,4312.31,4057.95,4445.64,4266.67,4061.54,4780,4226.67,4133.33,4407.69,1620,1596,71.896,0,0,0,0,
66,4182.05,4048.21,4474.87,4152.31,3896.41,4310.77,4048.72,4438.97,4256.92,4058.97,4785.13,4222.05,4133.33,4407.69,1619,1596,71.904,0,0,0,0,
67,4186.15,4053.85,4482.56,4157.95,3911.79,4322.56,4055.38,4445.13,4265.64,4067.69,4797.95,4232.82,4142.56,4416.92,1620,1594,71.911,0,0,0,0,
68,4190.77,4064.62,4486.67,4162.56,3918.46,4326.67,4057.95,4447.18,4270.26,4072.31,4801.54,4241.03,4141.54,4420,1619,1594,71.919,0,0,0,0,
69,4185.13,4066.15,4478.46,4154.36,3911.28,4320.51,4042.05,4426.15,4240.51,4053.85,4782.05,4230.77,4131.79,4407.69,1620,1594,71.927,0,0,0,0,
70,4186.15,4063.08,4474.36,4151.79,3904.1,4316.92,4044.62,4427.18,4229.74,4049.74,4781.03,4228.72,4142.56,4404.62,1618,1593,71.935,0,0,0,0,
71,4188.72,4055.9,4477.44,4155.38,3901.54,4320.51,4063.08,4451.79,4252.31,4072.31,4796.92,4231.79,4156.41,4407.69,1619,1594,71.943,0,0,0,0,
72,4173.85,4046.15,4465.64,4144.62,3907.18,4322.56,4057.44,4447.18,4250.26,4073.33,4780.51,4216.92,4138.97,4394.87,1618,1594,71.951,0,0,0,0,
73,4162.56,4048.72,4453.33,4135.9,3911.28,4314.87,4043.08,4424.62,4232.82,4059.49,4761.54,4206.15,4117.44,4385.64,1618,1595,71.958,0,0,0,0,
74,4172.31,4060.51,4465.13,4152.82,3908.21,4309.23,4044.62,4430.26,4242.56,4060.51,4776.41,4212.31,4119.49,4394.87,1618,1596,71.966,0,0,0,0,
75,4179.49,4056.92,4473.85,4157.44,3902.56,4316.41,4045.64,4443.59,4251.28,4061.03,4791.28,4220,4126.15,4402.05,1617,1596,71.974,0,0,0,0,
76,4179.49,4047.69,4473.85,4136.92,3894.36,4315.38,4045.64,4441.03,4248.21,4068.21,4789.74,4225.13,4137.44,4405.64,1619,1595,71.982,0,0,0,0,
77,4184.62,4056.41,4480.51,4143.08,3898.97,4307.69,4052.82,4444.1,4263.08,4088.72,4797.95,4233.85,4155.38,4414.36,1618,1594,71.99,0,0,0,0,
78,4185.64,4069.74,4483.08,4169.23,3922.05,4317.95,4052.82,4447.18,4268.21,4088.72,4801.54,4235.38,4151.79,4415.38,1619,1594,71.997,0,0,0,0,
79,4190.26,4074.87,4484.1,4171.28,3926.67,4326.15,4047.18,4442.56,4248.72,4082.56,4795.9,4239.49,4148.21,4418.97,1619,1593,72.005,0,0,0,0,
80,4203.59,4076.92,4492.31,4160.51,3903.59,4314.87,4050.26,4450.26,4251.79,4094.36,4804.62,4250.26,4165.64,4429.23,1619,1593,72.013,0,0,0,0,
81,4197.95,4071.28,4491.28,4152.31,3886.15,4309.74,4053.33,4458.46,4269.23,4089.74,4812.82,4244.62,4167.18,4424.62,1619,1591,72.021,0,0,0,0,
82,4190.26,4065.13,4484.1,4150.77,3901.54,4321.03,4053.85,4453.33,4261.03,4079.49,4806.67,4231.28,4152.82,4418.97,1619,1592,72.029,0,0,0,0,
83,4197.95,4066.67,4491.28,4160,3920,4323.59,4059.49,4452.82,4244.1,4087.69,4797.95,4232.82,4146.67,4422.56,1618,1591,72.037,0,0,0,0,
84,4193.85,4064.1,4492.31,4162.05,3912.31,4316.41,4064.1,4460,4250.77,4094.87,4797.95,4235.38,4145.64,4420,1617,1592,72.045,0,0,0,0,
85,4184.1,4060.51,4477.95,4148.21,3908.21,4316.41,4061.54,4459.49,4265.13,4095.9,4799.49,4227.69,4143.08,4409.74,1616,1593,72.052,0,0,0,0,
86,4180.51,4057.44,4470.26,4145.64,3911.79,4320,4055.38,4451.79,4256.92,4090.26,4789.74,4218.46,4136.92,4401.03,1616,1593,72.06,0,0,0,0,
87,4170.77,4056.41,4471.79,4156.92,3902.05,4323.59,4050.77,4443.08,4242.56,4070.77,4778.46,4212.82,4127.18,4393.33,1616,1592,72.068,0,0,0,0,
88,4167.69,4057.44,4472.82,4155.9,3897.95,4329.23,4051.28,4442.56,4243.08,4060.51,4782.05,4212.82,4123.08,4392.31,1618,1592,72.076,0,0,0,0,
89,4180,4058.46,4470.26,4145.64,3912.31,4325.13,4051.28,4454.36,4248.72,4072.82,4794.87,4219.49,4126.15,4401.54,1617,1593,72.083,0,0,0,0,
90,4187.18,4067.18,4475.38,4155.38,3921.03,4313.85,4046.15,4458.97,4253.85,4086.67,4805.13,4226.15,4135.38,4415.38,1619,1595,72.091,0,0,0,0,
91,4193.33,4079.49,4490.26,4170.77,3907.18,4313.85,4053.33,4457.44,4265.13,4098.46,4816.92,4240,4158.97,4430.77,1618,1596,72.099,0,0,0,0,
92,4194.87,4070.77,4497.44,4161.03,3890.77,4318.97,4066.15,4462.05,4274.36,4109.74,4815.9,4250.26,4167.69,4432.82,1619,1596,72.107,0,0,0,0,
93,4175.9,4051.28,4485.64,4145.64,3899.49,4322.05,4061.03,4455.38,4261.54,4097.44,4792.82,4235.38,4142.05,4414.87,1619,1595,72.115,0,0,0,0,
94,4166.15,4057.95,4478.97,4151.79,3921.54,4326.15,4049.23,4445.64,4246.67,4076.92,4785.13,4222.05,4126.15,4406.67,1617,1594,72.123,0,0,0,0,
95,4173.33,4070.77,4487.18,4157.95,3919.49,4321.54,4051.79,4452.82,4257.44,4077.44,4798.97,4229.74,4135.38,4412.31,1619,1592,72.13,0,0,0,0,
96,4172.31,4068.21,4491.28,4154.36,3906.15,4317.95,4060,4460.51,4272.82,4092.31,4802.56,4234.87,4138.46,4411.79,1617,1591,72.138,0,0,0,0,
97,4165.13,4060.51,4489.74,4152.82,3906.67,4326.15,4062.05,4459.49,4266.67,4095.38,4794.87,4230.26,4129.74,4408.21,1618,1592,72.146,0,0,0,0,
98,4160,4050.26,4492.31,4152.82,3908.21,4328.72,4057.95,4459.49,4260.51,4083.08,4792.82,4228.72,4123.59,4407.18,1618,1591,72.154,0,0,0,0,
99,4156.41,4052.31,4493.85,4153.85,3911.79,4321.54,4049.74,4453.85,4264.1,4071.79,4795.9,4223.08,4119.49,4404.62,1618,1593,72.162,0,0,0,0,
100,4155.38,4061.03,4488.72,4147.18,3925.13,4325.64,4044.62,4442.56,4254.87,4076.41,4787.69,4216.41,4121.54,4400.51,1618,1592,72.169,0,0,0,0,
101,4152.82,4053.85,4486.15,4139.49,3931.28,4332.31,4046.67,4441.03,4246.67,4088.21,4778.97,4215.9,4125.13,4398.46,1618,1594,72.177,0,0,0,0,
102,4155.38,4047.18,4489.23,4146.15,3907.69,4320.51,4053.33,4451.28,4264.62,4090.77,4786.67,4214.87,4120.51,4400.51,1618,1593,72.185,0,0,0,0,
103,4166.15,4057.95,4491.79,4154.87,3883.08,4307.69,4059.49,4456.92,4275.38,4092.82,4797.44,4216.92,4123.59,4409.23,1618,1594,72.193,0,0,0,0,
104,4169.23,4066.67,4496.41,4153.85,3894.36,4312.31,4063.08,4456.92,4267.18,4098.97,4796.92,4221.03,4135.38,4414.87,1619,1592,72.201,0,0,0,0,
105,4165.13,4063.08,4505.13,4152.82,3916.41,4324.1,4063.59,4456.92,4265.64,4089.74,4794.87,4218.97,4132.82,4411.28,1617,1594,72.209,0,0,0,0,
106,4166.67,4061.54,4510.26,4156.41,3921.54,4327.18,4061.54,4450.77,4267.18,4073.33,4788.72,4220.51,4120,4412.31,1618,1594,72.216,0,0,0,0,
107,4169.23,4066.15,4508.72,4157.44,3929.74,4327.69,4061.54,4441.03,4258.46,4077.95,4781.03,4229.74,4121.03,4415.9,1617,1594,72.224,0,0,0,0,
108,4172.82,4073.85,4509.74,4162.05,3925.64,4323.08,4062.05,4448.21,4256.41,4091.28,4791.28,4235.9,4130.26,4420,1617,1595,72.232,0,0,0,0,
109,4169.23,4072.82,4507.69,4165.64,3892.31,4320,4055.38,4455.9,4256.41,4085.13,4794.87,4228.72,4119.49,4418.46,1617,1591,72.24,0,0,0,0,
110,4155.38,4061.54,4493.85,4158.97,3891.79,4330.77,4049.74,4444.1,4251.28,4066.67,4780.51,4217.44,4105.13,4405.64,1616,1592,72.248,0,0,0,0,
111,4156.41,4058.97,4488.21,4152.82,3929.23,4337.44,4053.33,4441.03,4257.95,4070.26,4775.38,4215.38,4112.31,4402.05,1616,1591,72.255,0,0,0,0,
112,4169.74,4065.64,4500,4152.82,3932.82,4323.08,4053.33,4448.72,4265.64,4088.21,4781.54,4221.54,4123.59,4408.72,1616,1592,72.263,0,0,0,0,
113,4170.26,4066.15,4507.69,4151.79,3909.23,4312.82,4050.26,4445.64,4258.97,4090.77,4787.69,4223.08,4120.51,4409.74,1617,1593,72.271,0,0,0,0,
114,4165.13,4066.15,4507.18,4151.79,3906.15,4318.97,4055.38,4447.18,4262.56,4092.31,4793.33,4224.1,4115.38,4413.33,1616,1595,72.279,0,0,0,0,
115,4172.31,4077.44,4513.85,4157.95,3914.36,4315.38,4063.08,4461.03,4278.97,4106.67,4795.9,4234.36,4124.62,4427.18,1619,1596,72.287,0,0,0,0,
116,4174.87,4075.9,4515.9,4164.1,3912.31,4307.18,4062.05,4467.18,4286.15,4117.44,4801.03,4242.56,4132.82,4431.28,1617,1597,72.295,0,0,0,0,
117,4160.51,4057.95,4506.15,4165.13,3910.77,4318.97,4055.9,4457.95,4276.41,4100,4797.95,4230.77,4124.1,4417.44,1618,1596,72.302,0,0,0,0,
118,4155.9,4061.54,4502.05,4165.13,3910.26,4331.79,4059.49,4452.82,4268.72,4086.15,4784.1,4216.41,4116.41,4409.74,1618,1595,72.31,0,0,0,0,
119,4169.74,4086.15,4509.74,4169.23,3913.85,4326.15,4071.79,4463.08,4278.97,4104.1,4794.87,4223.59,4132.82,4421.03,1617,1595,72.318,0,0,0,0,
120,4175.9,4090.77,4516.92,4170.77,3926.67,4323.59,4077.44,4469.74,4291.28,4121.54,4814.87,4236.92,4147.69,4431.79,1617,1595,72.326,0,0,0,0,
121,4160,4074.87,4510.77,4159.49,3931.28,4334.36,4075.38,4462.56,4282.05,4107.18,4798.46,4229.74,4131.79,4427.69,1617,1596,72.334,0,0,0,0,
122,4143.59,4059.49,4495.9,4149.23,3924.1,4337.44,4069.74,4457.44,4263.08,4086.67,4781.54,4213.85,4106.15,4414.87,1617,1596,72.342,0,0,0,0,
123,4137.44,4043.59,4487.69,4152.82,3926.15,4340.51,4061.03,4456.41,4261.03,4089.74,4793.85,4210.26,4099.49,4409.23,1616,1596,72.349,0,0,0,0,
124,4140,4032.31,4492.82,4155.38,3927.18,4338.97,4058.46,4457.95,4276.92,4099.49,4797.44,4217.95,4113.33,4416.41,1617,1597,72.357,0,0,0,0,
125,4149.74,4031.79,4502.05,4153.33,3911.79,4320,4066.15,4469.74,4288.72,4107.69,4790.26,4226.67,4127.18,4428.72,1617,1598,72.365,0,0,0,0,
126,4155.9,4037.44,4509.74,4153.85,3902.56,4311.28,4075.38,4477.44,4277.44,4114.87,4801.54,4232.31,4125.64,4433.85,1618,1598,72.373,0,0,0,0,
127,4154.36,4038.46,4509.74,4158.46,3920,4329.23,4075.38,4466.67,4264.62,4105.64,4812.31,4228.72,4119.49,4429.74,1617,1599,72.381,0,0,0,0,
128,4151.79,4031.79,4506.67,4169.23,3936.41,4339.49,4069.23,4457.44,4268.21,4095.9,4802.56,4221.54,4118.46,4427.69,1619,1600,72.388,0,0,0,0,
0,4146.67,4021.03,4506.67,4158.46,3920.51,4331.79,4070.26,4464.1,4275.38,4101.03,4794.36,4223.08,4109.74,4430.26,1617,1599,72.396,0,0,0,0,
1,4137.44,4015.38,4505.13,4136.41,3903.08,4332.82,4076.41,4472.82,4286.15,4106.67,4798.97,4229.74,4099.49,4430.26,1618,1599,72.404,0,0,0,0,
2,4141.03,4021.54,4510.77,4151.79,3917.44,4336.92,4075.38,4474.36,4296.92,4110.77,4798.46,4234.36,4108.72,4428.21,1619,1597,72.412,0,0,0,0,
3,4154.36,4029.23,4518.97,4174.87,3931.28,4334.87,4074.36,4475.38,4297.44,4120.51,4794.36,4231.28,4120.51,4430.26,1619,1597,72.42,0,0,0,0,
4,4152.82,4025.64,4513.85,4159.49,3923.59,4337.44,4074.36,4469.23,4283.08,4113.33,4794.87,4220.51,4111.28,4428.72,1620,1597,72.427,0,0,0,0,
5,4140.51,4022.56,4503.08,4143.59,3924.62,4335.38,4068.21,4457.95,4265.64,4083.59,4793.33,4211.79,4098.46,4416.92,1619,1597,72.435,0,0,0,0,
6,4138.46,4031.28,4503.59,4154.36,3928.21,4331.79,4069.23,4462.56,4263.59,4080.51,4792.82,4213.85,4107.18,4415.9,1619,1596,72.443,0,0,0,0,
7,4143.59,4028.72,4508.21,4155.9,3915.9,4338.97,4081.54,4476.92,4280,4100,4797.44,4216.41,4111.28,4423.59,1619,1596,72.451,0,0,0,0,
8,4147.69,4024.1,4506.15,4146.67,3911.79,4340,4084.62,4479.49,4299.49,4107.18,4797.95,4218.46,4102.56,4424.1,1619,1596,72.459,0,0,0,0,
9,4152.31,4039.49,4505.64,4159.49,3918.46,4329.23,4077.95,4477.44,4303.08,4112.31,4795.38,4227.69,4111.28,4425.13,1619,1596,72.467,0,0,0,0,
10,4153.33,4049.74,4508.72,4171.79,3915.38,4329.23,4074.87,4478.46,4297.44,4122.56,4796.92,4224.62,4122.05,4424.1,1619,1596,72.474,0,0,0,0,
11,4150.26,4040.51,4509.23,4160,3908.72,4335.38,4076.41,4474.36,4295.9,4121.54,4804.62,4216.41,4116.41,4419.49,1619,1596,72.482,0,0,0,0,
12,4150.77,4034.87,4507.18,4150.26,3910.77,4327.18,4074.36,4471.79,4297.44,4114.87,4809.23,4224.1,4112.31,4423.59,1619,1597,72.49,0,0,0,0,
13,4152.82,4040,4506.15,4155.38,3912.31,4321.54,4072.31,4474.36,4294.87,4117.95,4811.28,4228.21,4113.85,4430.26,1619,1596,72.498,0,0,0,0,
14,4150.77,4043.59,4505.64,4162.05,3914.36,4331.79,4073.85,4473.33,4292.82,4121.54,4811.79,4216.41,4105.13,4424.62,1619,1596,72.506,0,0,0,0,
15,4151.79,4052.31,4505.64,4164.62,3924.62,4340.51,4074.36,4472.82,4305.13,4122.05,4811.79,4216.92,4105.13,4422.05,1619,1596,72.513,0,0,0,0,
16,4157.44,4062.05,4509.23,4160.51,3932.82,4339.49,4074.36,4474.87,4305.13,4122.56,4814.36,4233.85,4127.18,4430.77,1619,1595,72.521,0,0,0,0,
17,4157.95,4057.95,4508.72,4157.95,3926.67,4335.9,4075.9,4474.87,4287.69,4122.56,4814.87,4231.28,4128.21,4427.69,1618,1595,72.529,0,0,0,0,
18,4153.33,4050.26,4505.13,4165.13,3911.28,4337.44,4076.92,4473.85,4285.13,4120.51,4810.26,4217.44,4108.21,4414.36,1619,1594,72.537,0,0,0,0,
19,4148.21,4051.28,4504.62,4160.51,3907.18,4339.49,4079.49,4475.9,4297.44,4114.87,4808.72,4217.44,4106.15,4414.87,1618,1594,72.545,0,0,0,0,
20,4151.28,4054.36,4505.64,4146.67,3913.33,4334.36,4084.1,4479.49,4302.05,4120,4815.9,4228.72,4125.64,4425.64,1618,1597,72.553,0,0,0,0,
21,4161.54,4061.54,4509.23,4160.51,3922.05,4333.33,4080.51,4475.38,4293.85,4126.67,4814.87,4236.41,4129.23,4433.33,1619,1597,72.56,0,0,0,0,
22,4162.05,4070.77,4509.23,4175.9,3927.18,4337.95,4069.74,4462.56,4278.46,4112.82,4800,4229.74,4108.72,4425.13,1618,1597,72.569,0,0,0,0,
23,4151.79,4064.1,4496.92,4159.49,3916.92,4332.82,4061.54,4451.28,4270.77,4096.92,4792.31,4216.41,4094.36,4406.67,1619,1595,72.576,0,0,0,0,
24,4149.74,4052.82,4493.33,4147.69,3904.62,4322.05,4065.13,4460.51,4280.51,4103.08,4804.62,4217.95,4102.05,4403.08,1618,1594,72.584,0,0,0,0,
25,4154.36,4056.92,4504.1,4156.41,3916.92,4325.13,4075.38,4473.33,4287.69,4110.77,4813.33,4226.15,4109.23,4411.79,1619,1593,72.592,0,0,0,0,
26,4150.26,4061.03,4506.15,4156.92,3926.15,4336.41,4073.33,4464.62,4279.49,4102.05,4801.54,4217.95,4101.54,4408.21,1618,1595,72.6,0,0,0,0,
27,4148.21,4056.92,4503.08,4149.23,3911.79,4335.38,4066.67,4455.38,4277.44,4101.03,4794.87,4217.44,4102.05,4403.08,1619,1597,72.607,0,0,0,0,
28,4155.38,4061.54,4510.77,4159.49,3908.21,4326.67,4071.79,4464.1,4282.05,4117.95,4805.13,4231.28,4113.33,4410.77,1618,1598,72.615,0,0,0,0,
29,4156.41,4068.21,4512.82,4170.77,3909.23,4322.56,4069.74,4465.13,4272.82,4124.1,4803.59,4227.69,4108.72,4409.74,1618,1598,72.623,0,0,0,0,
30,4151.79,4066.67,4503.59,4166.15,3903.59,4324.1,4054.87,4450.26,4261.54,4110.77,4794.87,4220,4098.97,4405.13,1618,1596,72.631,0,0,0,0,
31,4158.97,4069.74,4512.31,4164.1,3909.74,4325.64,4058.46,4453.33,4271.79,4113.33,4808.21,4230.77,4108.72,4420.51,1618,1595,72.64,0,0,0,0,
32,4168.21,4072.31,4521.03,4166.15,3915.9,4324.1,4068.21,4464.1,4284.62,4128.72,4823.08,4236.41,4116.41,4430.77,1619,1594,72.646,0,0,0,0,
33,4164.62,4065.64,4511.28,4167.18,3909.23,4326.67,4060,4456.41,4280.51,4122.56,4816.41,4230.77,4108.21,4417.95,1617,1596,72.654,0,0,0,0,
34,4161.54,4064.62,4512.82,4170.26,3918.97,4335.9,4064.1,4457.44,4280,4108.72,4809.74,4230.77,4111.79,4414.36,1618,1596,72.662,0,0,0,0,
35,4170.77,4076.92,4522.05,4173.85,3926.67,4333.33,4077.95,4472.82,4290.26,4120,4815.9,4234.87,4127.18,4425.13,1617,1596,72.67,0,0,0,0,
36,4171.28,4079.49,4512.31,4165.64,3900,4316.92,4069.74,4476.92,4294.87,4137.44,4817.44,4234.36,4122.56,4422.56,1617,1595,72.678,0,0,0,0,
37,4158.46,4059.49,4499.49,4150.77,3884.62,4318.46,4060,4470.77,4297.44,4134.36,4814.36,4225.64,4112.31,4410.26,1617,1594,72.686,0,0,0,0,
38,4158.46,4052.82,4503.59,4151.28,3908.72,4335.9,4071.28,4467.18,4296.92,4122.56,4814.87,4218.97,4118.97,4411.79,1617,1593,72.693,0,0,0,0,
39,4170.77,4077.95,4508.21,4166.15,3928.21,4334.36,4073.85,4461.54,4286.15,4123.08,4816.41,4223.59,4126.15,4418.97,1616,1595,72.701,0,0,0,0,
40,4170.77,4093.33,4503.08,4170.26,3917.95,4321.03,4061.54,4456.41,4277.44,4122.56,4814.87,4224.62,4123.59,4414.36,1616,1595,72.709,0,0,0,0,
41,4160.51,4077.44,4494.87,4167.18,3904.62,4324.1,4060,4460,4285.64,4121.03,4810.77,4217.95,4121.54,4405.13,1616,1596,72.717,0,0,0,0,
42,4158.97,4066.15,4490.26,4167.18,3910.26,4335.9,4066.67,4461.03,4296.41,4124.1,4809.23,4214.36,4116.41,4404.62,1616,1596,72.725,0,0,0,0,
43,4161.03,4070.77,4493.33,4159.49,3922.56,4336.41,4069.23,4460.51,4295.9,4119.49,4812.82,4217.44,4105.13,4408.21,1617,1594,72.732,0,0,0,0,
44,4158.46,4068.72,4496.92,4158.46,3915.38,4328.72,4065.13,4458.46,4290.26,4113.33,4812.82,4218.46,4104.62,4403.59,1616,1593,72.74,0,0,0,0,
45,4153.33,4064.1,4492.82,4167.18,3894.36,4323.59,4061.03,4452.31,4292.82,4115.9,4805.64,4215.9,4107.69,4394.87,1618,1593,72.748,0,0,0,0,
46,4155.9,4067.69,4492.82,4161.54,3894.36,4324.1,4061.03,4453.33,4296.41,4109.23,4804.62,4214.87,4098.46,4395.9,1617,1595,72.756,0,0,0,0,
47,4165.64,4075.38,4500.51,4152.31,3910.77,4327.69,4065.64,4456.92,4285.13,4106.15,4805.64,4217.95,4095.9,4407.69,1617,1596,72.764,0,0,0,0,
48,4161.03,4074.87,4497.95,4154.36,3913.85,4329.23,4067.69,4457.44,4278.46,4118.97,4795.9,4218.97,4105.13,4410.26,1617,1596,72.772,0,0,0,0,
49,4152.82,4065.13,4490.77,4154.36,3908.72,4325.13,4066.67,4465.64,4294.87,4123.59,4797.95,4217.95,4108.21,4403.08,1617,1596,72.779,0,0,0,0,
50,4161.54,4063.59,4500,4158.46,3910.77,4321.03,4070.26,4474.87,4308.72,4120.51,4816.41,4224.62,4108.72,4406.15,1618,1595,72.787,0,0,0,0,
51,4169.74,4068.72,4511.28,4171.79,3903.08,4324.62,4069.74,4467.18,4298.97,4127.18,4814.36,4226.15,4107.18,4412.82,1617,1594,72.795,0,0,0,0,
52,4164.1,4066.67,4506.67,4167.69,3888.72,4326.67,4061.03,4451.28,4282.56,4122.05,4791.79,4215.9,4092.31,4406.15,1616,1595,72.803,0,0,0,0,
53,4164.1,4067.69,4502.05,4154.36,3895.9,4325.13,4059.49,4445.64,4281.03,4112.31,4789.23,4213.85,4090.26,4397.44,1616,1596,72.811,0,0,0,0,
54,4166.15,4075.38,4504.1,4156.41,3922.56,4329.74,4062.05,4444.62,4286.15,4114.87,4805.13,4215.9,4105.13,4396.41,1618,1594,72.818,0,0,0,0,
55,4163.59,4075.9,4502.56,4160,3927.69,4330.77,4062.05,4451.28,4293.85,4121.03,4810.77,4216.92,4106.15,4399.49,1616,1594,72.827,0,0,0,0,
56,4167.69,4076.41,4503.59,4157.95,3913.85,4327.69,4071.28,4470.26,4308.72,4132.31,4812.82,4224.62,4103.59,4410.77,1618,1594,72.834,0,0,0,0,
57,4171.79,4083.08,4505.64,4165.64,3918.46,4336.92,4076.92,4474.87,4312.31,4137.44,4817.44,4233.85,4109.74,4416.92,1617,1593,72.842,0,0,0,0,
58,4167.69,4082.56,4504.62,4167.69,3922.05,4347.69,4068.72,4460.51,4296.41,4119.49,4811.28,4227.69,4107.18,4409.23,1618,1595,72.85,0,0,0,0,
59,4166.15,4075.9,4503.08,4152.82,3914.87,4343.59,4069.74,4462.05,4291.79,4111.28,4807.18,4223.59,4105.13,4405.64,1617,1596,72.858,0,0,0,0,
60,4171.79,4076.92,4506.67,4151.28,3917.95,4333.33,4080,4478.97,4307.18,4132.31,4820,4238.46,4118.97,4418.46,1617,1597,72.865,0,0,0,0,
61,4175.9,4078.97,4513.33,4170.26,3918.46,4329.23,4078.97,4481.03,4315.38,4144.1,4825.13,4246.15,4131.28,4426.67,1618,1595,72.873,0,0,0,0,
62,4172.82,4073.85,4514.36,4172.82,3906.67,4329.23,4071.28,4475.9,4312.82,4135.9,4813.85,4235.38,4124.1,4420,1617,1595,72.881,0,0,0,0,
63,4165.64,4068.72,4507.18,4155.9,3909.74,4340.51,4065.64,4476.41,4302.05,4126.15,4808.21,4226.67,4106.67,4409.74,1618,1593,72.889,0,0,0,0,
64,4158.97,4070.77,4502.56,4146.67,3918.97,4344.1,4061.54,4473.33,4292.31,4120.51,4812.82,4228.21,4098.46,4404.1,1619,1594,72.897,0,0,0,0,
65,4154.36,4073.33,4506.15,4151.79,3907.69,4328.72,4060.51,4474.36,4298.46,4129.74,4815.38,4230.77,4106.67,4408.72,1620,1595,72.905,0,0,0,0,
66,4157.44,4070.26,4510.77,4160,3906.67,4323.59,4056.41,4473.85,4302.56,4135.38,4813.33,4231.28,4113.85,4412.31,1619,1596,72.912,0,0,0,0,
67,4165.64,4064.1,4510.77,4158.46,3917.95,4333.85,4053.33,4460,4288.21,4118.46,4805.13,4229.23,4098.46,4405.13,1619,1594,72.92,0,0,0,0,
68,4169.23,4065.13,4508.21,4153.85,3916.41,4338.46,4061.03,4459.49,4283.08,4116.41,4802.05,4228.21,4084.1,4403.59,1619,1594,72.928,0,0,0,0,
69,4170.26,4072.31,4508.72,4160,3908.21,4334.87,4070.26,4474.87,4304.1,4140,4813.33,4234.87,4104.1,4416.41,1618,1592,72.936,0,0,0,0,
70,4169.74,4073.33,4511.28,4164.62,3905.13,4337.44,4070.77,4479.49,4316.41,4145.64,4819.49,4234.87,4125.13,4415.9,1617,1593,72.944,0,0,0,0,
71,4170.26,4071.79,4510.26,4159.49,3911.28,4349.23,4074.36,4474.36,4300.51,4129.23,4808.72,4228.72,4115.9,4403.59,1617,1593,72.951,0,0,0,0,
72,4166.15,4067.69,4507.18,4155.38,3914.87,4349.23,4076.92,4475.38,4296.92,4129.23,4801.54,4230.26,4102.05,4405.13,1616,1595,72.959,0,0,0,0,
73,4157.95,4060,4507.69,4150.77,3910.26,4333.33,4069.23,4474.87,4310.77,4140.51,4809.23,4233.85,4097.44,4410.77,1617,1595,72.967,0,0,0,0,
74,4156.41,4061.54,4509.23,4154.87,3909.74,4331.79,4068.21,4471.79,4302.56,4138.97,4814.36,4232.82,4091.79,4408.21,1614,1596,72.975,0,0,0,0,
75,4166.15,4072.31,4509.23,4166.15,3914.36,4345.64,4077.95,4476.41,4288.21,4133.85,4812.31,4236.41,4097.44,4408.21,1616,1597,72.983,0,0,0,0,
76,4172.82,4073.33,4513.33,4161.54,3912.31,4344.62,4081.03,4482.05,4298.46,4136.92,4812.31,4244.1,4112.31,4414.87,1616,1597,72.991,0,0,0,0,
77,4170.26,4064.1,4515.38,4154.36,3909.23,4338.46,4075.9,4478.46,4304.1,4141.54,4812.31,4246.15,4111.28,4417.44,1616,1598,72.998,0,0,0,0,
78,4164.62,4060.51,4508.72,4165.64,3911.28,4343.59,4072.82,4467.69,4287.18,4139.49,4811.79,4242.56,4098.97,4413.85,1616,1598,73.006,0,0,0,0,
79,4164.1,4069.74,4508.72,4171.28,3912.31,4342.56,4072.31,4464.62,4280,4137.44,4811.28,4236.41,4100,4411.28,1616,1598,73.014,0,0,0,0,
80,4168.72,4078.46,4519.49,4160.51,3920,4340.51,4077.44,4470.77,4288.72,4139.49,4811.28,4232.82,4106.67,4414.36,1617,1598,73.022,0,0,0,0,
81,4163.59,4072.82,4522.56,4155.9,3926.67,4343.59,4081.54,4475.38,4293.33,4141.03,4811.28,4233.85,4099.49,4417.95,1617,1598,73.03,0,0,0,0,
82,4153.33,4066.67,4521.03,4164.1,3924.1,4341.54,4076.41,4474.87,4294.87,4138.46,4803.08,4235.38,4088.72,4417.95,1618,1596,73.037,0,0,0,0,
83,4152.82,4071.28,4524.1,4166.15,3925.64,4341.54,4069.23,4469.74,4295.38,4130.26,4795.38,4232.82,4090.26,4413.85,1617,1597,73.045,0,0,0,0,
84,4147.18,4071.28,4523.59,4155.38,3923.08,4342.05,4066.67,4468.72,4291.79,4126.15,4804.1,4229.23,4093.85,4407.18,1619,1597,73.053,0,0,0,0,
85,4138.46,4063.59,4520.51,4150.26,3908.21,4333.85,4065.13,4472.82,4290.26,4124.62,4813.33,4227.69,4087.69,4406.67,1618,1596,73.061,0,0,0,0,
86,4149.23,4062.05,4523.59,4155.38,3905.13,4332.82,4066.15,4472.31,4295.38,4118.46,4812.31,4232.82,4089.74,4412.82,1619,1596,73.069,0,0,0,0,
87,4157.95,4063.08,4528.21,4151.79,3915.38,4336.41,4067.18,4465.64,4296.41,4121.03,4810.77,4234.36,4096.92,4412.31,1618,1596,73.077,0,0,0,0,
88,4142.05,4060.51,4525.13,4148.72,3906.67,4326.67,4063.08,4453.85,4280,4121.54,4804.1,4222.05,4083.08,4401.03,1619,1596,73.084,0,0,0,0,
89,4131.79,4060,4522.05,4154.36,3898.97,4324.62,4060.51,4444.62,4267.18,4108.72,4794.87,4212.82,4071.28,4394.87,1619,1595,73.092,0,0,0,0,
90,4142.56,4064.62,4526.15,4154.87,3909.74,4333.85,4062.56,4449.74,4276.92,4108.72,4795.38,4218.46,4088.72,4401.54,1619,1596,73.1,0,0,0,0,
91,4145.64,4067.69,4526.67,4150.77,3905.64,4330.77,4060.51,4451.28,4278.97,4108.72,4796.92,4222.56,4097.44,4405.13,1619,1596,73.108,0,0,0,0,
92,4140,4062.56,4521.54,4152.31,3897.95,4325.64,4051.79,4436.41,4258.97,4087.18,4793.85,4216.41,4079.49,4396.92,1618,1597,73.116,0,0,0,0,
93,4147.18,4062.05,4525.64,4153.33,3906.67,4327.18,4048.72,4431.28,4258.97,4091.79,4805.13,4217.95,4083.59,4394.87,1619,1596,73.123,0,0,0,0,
94,4154.36,4071.79,4534.87,4149.74,3904.1,4326.15,4051.79,4442.56,4286.67,4124.62,4814.36,4228.72,4107.18,4406.67,1618,1595,73.131,0,0,0,0,
95,4152.82,4076.41,4538.97,4157.95,3895.9,4324.62,4059.49,4451.79,4298.97,4130.26,4812.82,4232.82,4110.77,4414.36,1618,1596,73.139,0,0,0,0,
96,4156.92,4076.92,4538.97,4170.77,3909.74,4325.64,4065.64,4458.46,4295.38,4118.97,4817.44,4231.28,4104.1,4412.31,1617,1596,73.147,0,0,0,0,
97,4160,4077.95,4538.97,4163.59,3918.46,4325.64,4064.62,4460,4288.21,4111.28,4820,4231.79,4103.08,4412.82,1618,1596,73.155,0,0,0,0,
98,4160,4077.95,4540,4149.23,3907.69,4331.28,4063.08,4457.95,4276.92,4105.13,4818.97,4237.44,4110.77,4418.97,1616,1595,73.163,0,0,0,0,
99,4167.18,4076.92,4539.49,4155.38,3907.18,4339.49,4067.69,4460.51,4282.05,4111.79,4826.15,4244.1,4121.54,4426.15,1616,1596,73.17,0,0,0,0,
100,4172.31,4085.13,4541.03,4169.23,3911.79,4337.44,4071.28,4461.54,4299.49,4128.72,4835.38,4246.15,4120,4429.74,1617,1595,73.178,0,0,0,0,
101,4169.23,4094.87,4547.69,4172.82,3908.21,4328.21,4068.21,4466.15,4306.15,4136.92,4830.77,4247.18,4113.85,4428.72,1616,1595,73.186,0,0,0,0,
102,4171.28,4090.77,4549.23,4171.79,3909.23,4330.77,4069.23,4473.33,4306.15,4138.46,4826.67,4250.77,4124.62,4428.72,1617,1596,73.194,0,0,0,0,
103,4178.97,4081.54,4542.56,4165.13,3911.79,4335.38,4076.41,4467.69,4310.77,4139.49,4834.87,4250.77,4138.46,4431.28,1617,1596,73.202,0,0,0,0,
104,4176.92,4080.51,4538.97,4163.08,3904.62,4330.26,4073.33,4457.95,4306.15,4136.92,4838.46,4245.64,4127.69,4430.26,1618,1595,73.209,0,0,0,0,
105,4169.74,4088.72,4542.05,4171.79,3901.03,4329.74,4066.15,4461.03,4297.95,4131.28,4828.72,4245.64,4110.26,4427.18,1617,1594,73.217,0,0,0,0,
106,4169.23,4091.79,4541.54,4170.77,3911.79,4332.82,4064.62,4459.49,4289.23,4117.44,4816.41,4244.1,4103.08,4426.15,1617,1594,73.225,0,0,0,0,
107,4170.77,4089.23,4537.44,4163.08,3918.97,4330.26,4060,4445.64,4273.85,4105.13,4812.82,4234.36,4103.08,4420.51,1617,1594,73.233,0,0,0,0,
108,4166.67,4089.23,4534.36,4165.64,3911.79,4328.21,4056.92,4446.15,4274.36,4109.74,4808.72,4227.69,4104.1,4410.77,1617,1594,73.241,0,0,0,0,
109,4168.21,4093.85,4535.38,4174.36,3910.26,4335.9,4071.79,4460,4293.85,4118.46,4811.79,4230.26,4107.18,4415.38,1616,1594,73.249,0,0,0,0,
110,4173.85,4095.38,4541.03,4174.36,3916.41,4343.08,4085.13,4466.15,4307.69,4127.18,4827.18,4234.87,4113.33,4426.15,1617,1596,73.256,0,0,0,0,
111,4171.28,4083.08,4537.44,4167.18,3908.21,4337.44,4075.9,4462.05,4312.31,4136.92,4827.18,4234.87,4112.31,4424.62,1618,1596,73.264,0,0,0,0,
112,4168.21,4071.28,4526.67,4163.59,3906.15,4331.79,4064.1,4457.44,4307.18,4128.72,4811.79,4233.85,4104.1,4418.46,1617,1597,73.272,0,0,0,0,
113,4166.67,4076.41,4527.18,4164.1,3921.54,4336.92,4068.72,4461.54,4303.08,4114.87,4812.82,4238.97,4098.97,4421.54,1619,1597,73.28,0,0,0,0,
114,4168.72,4090.77,4542.56,4169.74,3927.18,4340,4080.51,4475.38,4321.03,4131.79,4830.26,4249.74,4111.28,4428.21,1617,1596,73.288,0,0,0,0,
115,4174.36,4092.82,4544.1,4177.95,3912.31,4335.9,4080,4482.05,4331.28,4144.62,4827.18,4249.23,4124.62,4425.13,1617,1598,73.295,0,0,0,0,
116,4166.15,4076.92,4525.64,4168.72,3900,4334.36,4067.69,4467.18,4307.69,4123.08,4809.74,4235.9,4108.21,4411.79,1617,1597,73.303,0,0,0,0,
117,4151.79,4064.1,4520.51,4148.72,3909.74,4336.92,4067.18,4457.95,4298.46,4114.87,4807.18,4230.26,4087.18,4405.13,1617,1597,73.311,0,0,0,0,
118,4159.49,4075.38,4528.21,4153.85,3924.62,4335.9,4075.38,4462.05,4314.87,4126.15,4810.26,4233.33,4091.79,4408.21,1617,1597,73.319,0,0,0,0,
119,4169.74,4089.23,4525.64,4173.33,3922.56,4332.31,4072.31,4461.54,4310.77,4119.49,4811.79,4232.82,4098.46,4404.1,1617,1597,73.327,0,0,0,0,
120,4160,4080,4521.03,4174.87,3907.18,4325.13,4065.64,4460.51,4302.56,4112.31,4811.79,4229.23,4090.26,4401.54,1618,1596,73.335,0,0,0,0,
121,4152.82,4070.26,4526.67,4166.15,3896.92,4323.08,4062.05,4458.97,4311.28,4120.51,4804.1,4223.59,4089.23,4405.64,1617,1594,73.342,0,0,0,0,
122,4155.38,4073.85,4520.51,4157.44,3893.85,4326.67,4055.38,4446.67,4308.21,4115.9,4792.82,4214.87,4090.26,4398.46,1617,1593,73.35,0,0,0,0,
123,4160,4075.38,4508.72,4149.23,3896.41,4327.18,4054.87,4444.62,4297.44,4103.59,4801.03,4210.77,4092.31,4387.18,1617,1593,73.359,0,0,0,0,
124,4164.62,4072.82,4515.9,4151.28,3909.74,4327.69,4070.26,4466.15,4308.21,4117.95,4814.87,4219.49,4104.1,4393.33,1617,1593,73.366,0,0,0,0,
125,4158.97,4071.28,4519.49,4156.92,3916.41,4332.31,4078.97,4474.36,4319.49,4126.15,4809.23,4224.1,4098.46,4398.97,1618,1593,73.374,0,0,0,0,
126,4146.15,4064.1,4506.15,4152.31,3906.67,4333.85,4068.21,4453.85,4302.05,4111.28,4793.85,4215.38,4074.36,4391.28,1617,1594,73.382,0,0,0,0,
127,4147.69,4057.95,4505.13,4147.18,3889.74,4328.72,4063.08,4446.67,4288.21,4111.28,4791.28,4210.77,4069.74,4390.77,1618,1596,73.389,0,0,0,0,
128,4157.95,4065.13,4517.95,4153.85,3888.21,4323.59,4071.79,4458.97,4296.41,4123.08,4804.62,4218.97,4084.62,4398.97,1618,1596,73.397,0,0,0,0,
0,4155.38,4072.82,4521.03,4158.97,3904.1,4325.64,4074.36,4462.56,4304.62,4123.59,4814.36,4228.21,4086.67,4403.59,1618,1596,73.405,0,0,0,0,
1,4153.33,4067.18,4519.49,4147.69,3905.64,4328.21,4063.59,4457.95,4300.51,4116.41,4810.77,4230.26,4083.59,4406.67,1619,1595,73.413,0,0,0,0,
2,4164.62,4067.18,4522.56,4140,3894.87,4324.62,4057.95,4454.87,4291.28,4111.28,4809.23,4232.82,4091.28,4409.74,1617,1595,73.421,0,0,0,0,
3,4167.18,4074.36,4523.08,4154.36,3897.95,4324.62,4061.54,4447.18,4289.74,4114.87,4811.28,4232.31,4093.33,4410.77,1619,1594,73.428,0,0,0,0,
4,4158.97,4073.85,4521.54,4165.13,3904.1,4330.26,4062.56,4440,4291.79,4120,4801.54,4224.62,4085.64,4405.64,1618,1594,73.436,0,0,0,0,
5,4163.59,4068.72,4521.54,4160,3894.36,4328.72,4061.54,4450.26,4285.13,4117.95,4797.95,4217.95,4087.69,4397.95,1619,1596,73.444,0,0,0,0,
6,4171.28,4067.69,4520.51,4151.79,3891.79,4320.51,4061.03,4457.44,4277.44,4121.54,4811.79,4215.9,4093.85,4395.9,1618,1595,73.452,0,0,0,0,
7,4169.74,4071.79,4521.03,4152.31,3903.59,4317.95,4064.62,4448.21,4280,4126.67,4816.41,4217.95,4089.74,4397.95,1618,1594,73.46,0,0,0,0,
8,4168.72,4074.36,4521.03,4160,3902.05,4320,4067.18,4443.08,4277.95,4110.26,4803.59,4217.44,4082.56,4398.97,1618,1595,73.467,0,0,0,0,
9,4162.05,4064.1,4509.23,4155.9,3890.77,4321.54,4061.03,4444.62,4263.08,4097.95,4793.85,4207.69,4071.28,4389.23,1619,1596,73.475,0,0,0,0,
10,4147.18,4050.26,4498.46,4139.49,3889.74,4323.59,4055.38,4441.03,4253.85,4098.97,4792.31,4198.97,4059.49,4374.87,1619,1595,73.483,0,0,0,0,
11,4150.26,4050.77,4506.15,4143.08,3892.31,4325.13,4063.08,4441.03,4262.05,4103.08,4792.31,4209.23,4067.69,4382.05,1618,1596,73.491,0,0,0,0,
12,4166.15,4055.38,4514.87,4152.82,3891.79,4330.26,4069.23,4449.23,4273.33,4117.44,4796.41,4224.62,4082.56,4398.46,1619,1595,73.499,0,0,0,0,
13,4158.46,4047.69,4505.64,4142.56,3896.92,4335.9,4064.1,4442.05,4263.59,4120,4793.85,4217.95,4070.77,4389.23,1618,1595,73.507,0,0,0,0,
14,4148.21,4050.26,4503.08,4145.13,3900.51,4333.85,4066.15,4440.51,4257.44,4107.69,4790.26,4211.28,4055.38,4381.03,1619,1596,73.514,0,0,0,0,
15,4164.62,4064.1,4521.03,4165.64,3894.87,4335.9,4078.46,4472.31,4282.05,4117.95,4806.67,4226.67,4077.95,4402.05,1617,1596,73.522,0,0,0,0,
16,4178.97,4066.67,4530.26,4160,3894.87,4337.95,4077.44,4482.56,4298.97,4143.08,4820.51,4238.97,4097.44,4411.28,1618,1597,73.53,0,0,0,0,
17,4168.21,4056.41,4520.51,4147.18,3903.08,4328.72,4063.59,4458.46,4280,4137.95,4802.56,4231.28,4077.95,4393.85,1619,1596,73.538,0,0,0,0,
18,4167.18,4058.46,4518.46,4162.05,3912.31,4326.67,4065.64,4463.59,4269.74,4125.13,4793.33,4225.64,4072.82,4388.72,1617,1596,73.546,0,0,0,0,
19,4178.46,4069.23,4526.67,4173.33,3916.92,4340,4077.95,4482.05,4278.97,4138.97,4812.82,4232.82,4096.41,4399.49,1617,1595,73.554,0,0,0,0,
20,4172.31,4067.18,4522.05,4160.51,3908.72,4340,4071.79,4460,4272.82,4145.13,4817.95,4232.82,4093.33,4398.97,1618,1596,73.561,0,0,0,0,
21,4163.59,4060.51,4514.87,4155.38,3894.87,4329.23,4061.54,4444.1,4263.59,4127.69,4808.21,4227.18,4075.38,4393.85,1618,1594,73.569,0,0,0,0,
22,4165.64,4058.97,4517.44,4165.64,3896.92,4328.72,4064.1,4458.46,4264.1,4117.95,4808.21,4228.72,4075.9,4396.41,1618,1596,73.577,0,0,0,0,
23,4167.69,4060.51,4520,4167.18,3913.85,4335.9,4068.72,4460.51,4263.08,4129.23,4812.31,4230.77,4077.95,4397.95,1619,1595,73.585,0,0,0,0,
24,4170.77,4060,4519.49,4151.28,3912.31,4337.95,4071.79,4458.46,4266.15,4132.31,4810.26,4231.28,4078.46,4396.92,1618,1596,73.593,0,0,0,0,
25,4171.28,4052.31,4522.56,4140,3893.85,4330.77,4076.92,4470.26,4274.87,4120,4808.72,4233.33,4078.97,4397.44,1619,1596,73.6,0,0,0,0,
26,4165.13,4047.69,4520.51,4148.72,3890.26,4328.72,4077.95,4476.41,4280.51,4123.59,4811.79,4234.87,4078.46,4400.51,1618,1596,73.608,0,0,0,0,
27,4160,4052.82,4508.72,4155.9,3892.31,4336.92,4075.9,4469.74,4281.54,4142.05,4815.38,4234.36,4083.08,4401.54,1619,1596,73.616,0,0,0,0,
28,4162.05,4057.95,4508.21,4151.28,3895.38,4338.97,4073.33,4462.05,4279.49,4142.05,4812.82,4233.33,4082.56,4395.38,1619,1597,73.624,0,0,0,0,
29,4168.72,4062.56,4522.56,4159.49,3907.18,4334.87,4070.77,4459.49,4275.38,4134.87,4812.31,4235.38,4085.64,4396.41,1617,1598,73.632,0,0,0,0,
30,4173.85,4067.18,4527.18,4172.82,3914.36,4333.33,4066.15,4460,4279.49,4142.05,4815.9,4236.92,4093.33,4405.13,1618,1596,73.64,0,0,0,0,
31,4169.74,4062.05,4511.79,4164.62,3909.23,4332.31,4060.51,4458.46,4283.59,4140.51,4815.38,4231.79,4088.21,4400,1617,1597,73.647,0,0,0,0,
32,4165.64,4058.97,4503.59,4151.28,3895.9,4325.64,4061.54,4458.46,4273.33,4129.74,4813.33,4226.15,4085.64,4391.28,1617,1596,73.655,0,0,0,0,
33,4175.38,4071.79,4516.41,4153.33,3889.74,4323.59,4066.15,4459.49,4261.54,4129.74,4813.85,4229.23,4100.51,4396.41,1617,1595,73.663,0,0,0,0,
34,4187.69,4083.59,4527.18,4169.23,3905.13,4331.28,4062.56,4452.31,4261.03,4137.44,4813.85,4234.87,4099.49,4401.03,1617,1595,73.671,0,0,0,0,
35,4192.31,4083.08,4526.15,4186.15,3921.03,4332.82,4058.97,4444.62,4263.59,4140.51,4812.31,4235.38,4089.23,4402.56,1616,1595,73.679,0,0,0,0,
36,4189.74,4076.41,4525.13,4176.92,3905.64,4329.74,4065.13,4446.15,4261.54,4134.36,4810.77,4233.85,4091.28,4405.64,1618,1594,73.686,0,0,0,0,
37,4182.56,4073.33,4525.64,4157.44,3895.38,4331.79,4067.69,4445.64,4257.95,4122.56,4808.72,4232.82,4086.67,4400.51,1617,1594,73.694,0,0,0,0,
38,4182.05,4077.44,4523.59,4163.59,3908.72,4336.92,4066.15,4444.1,4258.46,4120.51,4809.23,4231.79,4082.05,4400.51,1618,1595,73.702,0,0,0,0,
39,4184.1,4078.97,4523.08,4170.77,3902.56,4335.9,4067.18,4456.92,4265.13,4130.77,4813.33,4233.85,4087.18,4407.18,1618,1594,73.71,0,0,0,0,
40,4176.41,4066.67,4523.59,4154.36,3893.33,4333.85,4068.72,4465.64,4266.67,4135.38,4813.85,4235.9,4088.21,4408.21,1616,1595,73.718,0,0,0,0,
41,4169.23,4058.97,4523.08,4146.67,3908.21,4334.87,4067.18,4452.82,4263.59,4135.38,4809.74,4234.87,4089.74,4407.69,1617,1593,73.726,0,0,0,0,
42,4177.95,4069.23,4522.56,4162.56,3916.41,4334.87,4066.67,4448.21,4266.67,4136.41,4809.23,4234.36,4092.31,4406.15,1616,1594,73.733,0,0,0,0,
43,4182.56,4077.95,4517.44,4167.18,3910.77,4336.92,4069.74,4454.87,4262.05,4134.87,4810.26,4233.33,4089.23,4401.03,1617,1594,73.741,0,0,0,0,
44,4174.36,4073.33,4509.74,4155.38,3908.72,4335.38,4070.77,4449.23,4255.9,4134.36,4815.38,4232.82,4090.77,4398.97,1617,1594,73.749,0,0,0,0,
45,4169.74,4065.64,4506.67,4150.77,3900.51,4330.77,4067.18,4444.1,4256.92,4135.9,4817.44,4232.82,4090.77,4399.49,1617,1593,73.757,0,0,0,0,
46,4170.77,4063.59,4506.67,4154.36,3893.85,4327.69,4060,4449.74,4251.79,4132.82,4804.62,4231.79,4080,4394.36,1617,1594,73.765,0,0,0,0,
47,4170.26,4066.67,4511.28,4154.87,3899.49,4320,4060.51,4456.41,4250.77,4130.26,4801.03,4228.72,4083.59,4393.85,1618,1594,73.772,0,0,0,0,
48,4173.85,4073.85,4521.03,4152.82,3897.95,4320,4070.77,4467.18,4269.23,4138.46,4822.05,4234.87,4101.03,4403.59,1618,1595,73.78,0,0,0,0,
49,4184.1,4075.9,4522.56,4154.87,3895.38,4332.31,4077.44,4480.51,4282.56,4152.82,4838.46,4248.72,4107.69,4413.33,1619,1594,73.788,0,0,0,0,
50,4186.67,4072.31,4513.33,4157.44,3900.51,4337.44,4074.36,4484.62,4283.08,4164.1,4832.31,4249.23,4110.26,4414.87,1619,1596,73.796,0,0,0,0,
51,4172.82,4062.56,4505.64,4154.87,3893.85,4326.67,4068.72,4471.28,4272.82,4154.36,4816.92,4234.36,4103.59,4403.08,1618,1595,73.804,0,0,0,0,
52,4161.54,4056.92,4503.59,4149.23,3889.74,4323.08,4062.05,4452.82,4250.26,4131.28,4806.67,4225.64,4081.54,4392.82,1618,1596,73.812,0,0,0,0,
53,4171.28,4069.23,4506.15,4154.87,3905.13,4332.82,4060.51,4451.79,4248.21,4130.77,4810.77,4231.79,4083.08,4398.46,1619,1594,73.819,0,0,0,0,
54,4175.9,4076.92,4508.72,4165.64,3915.9,4339.49,4064.62,4460,4264.1,4134.87,4813.33,4233.33,4094.36,4400.51,1618,1593,73.827,0,0,0,0,
55,4165.64,4064.1,4505.13,4164.1,3913.85,4339.49,4064.62,4456.41,4264.1,4125.13,4803.59,4227.18,4083.08,4391.79,1619,1594,73.835,0,0,0,0,
56,4176.92,4065.13,4511.79,4160.51,3908.21,4332.31,4064.62,4461.03,4268.72,4132.82,4811.28,4235.38,4086.67,4399.49,1618,1596,73.843,0,0,0,0,
57,4203.08,4088.21,4527.69,4170.26,3900.51,4325.64,4069.23,4477.44,4286.15,4158.97,4831.28,4251.79,4117.95,4417.95,1620,1598,73.851,0,0,0,0,
58,4208.72,4100,4528.21,4179.49,3901.54,4329.74,4067.18,4476.41,4281.03,4158.97,4834.36,4254.36,4126.67,4417.44,1620,1598,73.858,0,0,0,0,
59,4202.56,4092.82,4522.05,4174.87,3914.87,4334.36,4064.1,4465.13,4268.21,4147.18,4827.18,4248.21,4110.77,4414.87,1619,1600,73.866,0,0,0,0,
60,4205.64,4087.69,4526.15,4168.21,3916.92,4330.77,4071.79,4472.31,4284.1,4159.49,4830.26,4250.26,4108.21,4425.64,1621,1600,73.874,0,0,0,0,
61,4203.59,4081.54,4524.1,4162.05,3899.49,4324.62,4076.41,4478.46,4294.36,4165.64,4830.77,4253.85,4109.23,4426.67,1619,1598,73.882,0,0,0,0,
62,4189.74,4070.77,4511.79,4152.82,3890.26,4328.72,4069.23,4465.64,4267.18,4145.13,4813.33,4242.56,4097.95,4407.69,1618,1595,73.89,0,0,0,0,
63,4182.05,4067.69,4503.59,4151.79,3901.03,4333.85,4067.18,4456.41,4245.13,4130.77,4805.13,4231.79,4089.74,4393.33,1618,1592,73.898,0,0,0,0,
64,4180.51,4066.67,4494.87,4156.41,3904.62,4328.21,4066.15,4457.95,4250.26,4134.36,4807.18,4225.13,4088.72,4390.26,1618,1591,73.905,0,0,0,0,
65,4183.08,4062.56,4492.31,4152.31,3897.44,4321.54,4059.49,4458.46,4255.38,4137.95,4802.56,4222.05,4085.64,4390.77,1616,1592,73.913,0,0,0,0,
66,4191.79,4069.23,4507.18,4155.9,3898.97,4326.67,4061.03,4463.59,4259.49,4146.15,4810.77,4233.33,4096.41,4401.54,1616,1594,73.921,0,0,0,0,
67,4192.82,4078.97,4510.77,4166.15,3902.56,4326.67,4058.97,4458.97,4266.15,4152.82,4830.26,4241.03,4109.23,4409.23,1615,1596,73.929,0,0,0,0,
68,4182.05,4071.79,4494.87,4158.97,3896.41,4316.92,4046.15,4443.08,4255.9,4141.54,4823.08,4225.13,4095.9,4397.44,1616,1600,73.937,0,0,0,0,
69,4180,4060.51,4488.72,4151.28,3892.31,4319.49,4049.74,4445.64,4246.67,4130.77,4805.13,4216.92,4081.54,4387.18,1616,1600,73.945,0,0,0,0,
70,4186.15,4064.62,4492.31,4154.87,3892.82,4327.18,4065.64,4464.1,4266.15,4135.9,4812.31,4230.26,4092.31,4392.82,1616,1601,73.952,0,0,0,0,
71,4187.18,4073.33,4497.95,4154.36,3897.95,4325.64,4064.62,4467.69,4280.51,4143.08,4819.49,4237.95,4103.08,4397.95,1617,1600,73.96,0,0,0,0,
72,4189.23,4073.85,4502.05,4151.79,3911.79,4324.62,4057.95,4459.49,4266.67,4141.54,4812.31,4229.74,4099.49,4391.79,1616,1600,73.968,0,0,0,0,
73,4188.72,4070.77,4496.41,4155.9,3912.82,4329.23,4066.15,4462.05,4256.41,4138.46,4808.72,4222.56,4093.85,4387.18,1617,1600,73.976,0,0,0,0,
74,4174.87,4066.15,4490.26,4153.33,3897.95,4328.72,4073.85,4465.13,4265.64,4140,4808.72,4224.1,4092.31,4386.67,1616,1599,73.984,0,0,0,0,
75,4161.54,4062.56,4491.79,4150.26,3894.36,4328.72,4066.67,4463.08,4267.69,4142.56,4813.85,4225.13,4090.77,4386.67,1617,1599,73.991,0,0,0,0,
76,4155.38,4064.62,4494.36,4152.31,3897.44,4331.28,4057.95,4458.46,4253.85,4135.38,4814.36,4218.97,4083.59,4384.62,1616,1598,73.999,0,0,0,0,
77,4152.31,4071.28,4498.97,4154.87,3895.9,4326.15,4056.92,4449.74,4242.56,4122.56,4801.54,4214.36,4079.49,4386.67,1617,1599,74.007,0,0,0,0,
78,4154.36,4074.36,4509.74,4163.08,3900.51,4321.54,4058.97,4449.74,4250.77,4124.62,4796.92,4219.49,4088.21,4396.41,1617,1597,74.015,0,0,0,0,
79,4157.44,4075.38,4511.28,4163.59,3902.56,4324.1,4060,4455.9,4262.05,4132.82,4809.74,4222.56,4095.9,4401.03,1618,1598,74.023,0,0,0,0,
80,4146.67,4075.9,4506.67,4153.85,3894.87,4328.21,4057.44,4449.23,4253.85,4123.59,4814.36,4216.41,4090.26,4393.85,1619,1597,74.031,0,0,0,0,
81,4140,4075.38,4513.85,4160,3891.79,4326.15,4053.85,4440.51,4248.21,4113.85,4808.21,4215.38,4088.72,4394.36,1618,1597,74.038,0,0,0,0,
82,4152.82,4081.03,4526.67,4177.44,3894.36,4323.59,4061.03,4456.41,4272.31,4138.97,4813.85,4230.77,4105.13,4410.26,1619,1597,74.046,0,0,0,0,
83,4149.23,4082.56,4528.72,4174.36,3893.85,4325.13,4068.72,4467.69,4283.59,4160,4820,4234.36,4109.23,4410.77,1618,1598,74.054,0,0,0,0,
84,4127.18,4072.31,4519.49,4163.59,3898.46,4333.85,4063.59,4446.15,4261.54,4141.03,4808.72,4214.87,4089.23,4387.69,1618,1599,74.062,0,0,0,0,
85,4128.72,4072.82,4520,4169.23,3901.03,4335.38,4057.95,4439.49,4255.38,4131.79,4806.15,4207.69,4086.15,4375.9,1617,1598,74.07,0,0,0,0,
86,4144.62,4088.21,4532.31,4174.87,3895.9,4320,4060,4456.92,4271.28,4148.21,4822.05,4218.97,4105.13,4388.72,1618,1598,74.077,0,0,0,0,
87,4146.15,4094.87,4533.33,4175.9,3889.74,4309.23,4063.59,4458.46,4272.82,4150.26,4827.69,4222.56,4109.23,4393.33,1618,1597,74.085,0,0,0,0,
88,4135.9,4082.05,4522.05,4176.41,3892.31,4322.05,4059.49,4441.03,4258.46,4131.28,4808.72,4213.85,4096.92,4380.51,1617,1598,74.093,0,0,0,0,
89,4133.85,4074.36,4523.59,4175.38,3906.15,4333.33,4055.9,4432.82,4260,4135.9,4807.18,4216.41,4094.87,4381.03,1618,1598,74.101,0,0,0,0,
90,4149.23,4088.21,4540.51,4181.54,3911.79,4319.49,4059.49,4443.59,4285.64,4161.03,4829.23,4231.79,4107.69,4399.49,1617,1597,74.109,0,0,0,0,
91,4156.41,4097.44,4542.05,4190.77,3898.97,4314.36,4057.44,4448.21,4285.64,4152.82,4825.13,4232.82,4110.26,4401.03,1617,1596,74.117,0,0,0,0,
92,4142.05,4093.85,4536.92,4191.28,3892.31,4325.13,4054.87,4443.59,4258.97,4132.31,4812.82,4224.62,4103.59,4392.31,1616,1598,74.124,0,0,0,0,
93,4131.28,4089.23,4537.95,4179.49,3897.95,4322.56,4061.03,4441.03,4258.46,4147.18,4821.54,4228.72,4104.62,4396.41,1618,1598,74.132,0,0,0,0,
94,4142.56,4088.21,4538.46,4179.49,3894.36,4312.82,4062.05,4446.15,4282.56,4166.15,4832.31,4238.97,4112.82,4406.15,1617,1597,74.14,0,0,0,0,
95,4155.38,4096.92,4545.13,4196.41,3898.97,4315.9,4055.9,4448.72,4289.74,4165.64,4829.74,4243.59,4113.85,4413.33,1618,1598,74.148,0,0,0,0,
96,4141.03,4093.33,4540.51,4195.38,3911.79,4344.62,4053.33,4432.31,4267.69,4150.26,4811.79,4232.82,4095.38,4402.56,1619,1594,74.156,0,0,0,0,
97,4113.85,4067.18,4520,4177.44,3903.08,4373.85,4053.33,4423.59,4248.21,4131.28,4796.92,4213.33,4076.41,4382.05,1619,1593,74.163,0,0,0,0,
98,4120.51,4065.64,4521.54,4178.46,3894.87,4349.74,4061.03,4440.51,4267.69,4142.56,4812.82,4218.46,4089.23,4392.31,1619,1592,74.171,0,0,0,0,
99,4145.64,4089.74,4539.49,4187.69,3909.23,4303.59,4066.15,4451.28,4296.41,4175.38,4835.9,4236.92,4109.23,4416.41,1619,1592,74.179,0,0,0,0,
100,4150.26,4088.21,4543.08,4180.51,3920.51,4304.1,4052.31,4447.18,4289.74,4177.95,4827.69,4235.9,4106.15,4416.92,1619,1592,74.187,0,0,0,0,
101,4162.05,4086.67,4548.72,4188.72,3921.03,4317.44,4052.31,4454.87,4274.87,4163.08,4829.23,4242.56,4109.74,4426.67,1619,1592,74.195,0,0,0,0,
102,4176.41,4097.44,4558.46,4205.13,3924.1,4310.26,4068.21,4461.54,4278.46,4167.69,4848.21,4263.59,4124.1,4453.33,1619,1591,74.203,0,0,0,0,
103,4178.46,4092.82,4560,4200,3920.51,4310.26,4067.69,4458.46,4298.46,4188.72,4854.87,4269.23,4123.08,4465.64,1619,1591,74.21,0,0,0,0,
104,4187.69,4075.9,4553.85,4185.64,3907.69,4330.26,4055.38,4454.87,4304.62,4194.87,4847.69,4257.44,4113.85,4459.49,1618,1592,74.218,0,0,0,0,
105,4153.33,4044.1,4532.31,4164.62,3906.15,4363.59,4053.85,4436.41,4259.49,4157.44,4824.62,4232.31,4097.95,4441.54,1618,1596,74.226,0,0,0,0,
106,4159.49,4035.38,4528.21,4163.08,3925.64,4361.54,4064.62,4436.92,4244.1,4143.59,4826.15,4232.31,4098.46,4449.74,1617,1596,74.234,0,0,0,0,
107,4329.74,4084.62,4559.49,4191.28,3949.74,4310.26,4076.41,4477.44,4294.36,4196.41,4869.23,4269.23,4132.82,4493.85,1618,1596,74.242,0,0,0,0,
108,4464.62,4117.44,4573.85,4202.05,3960.51,4296.92,4080,4486.67,4307.69,4214.87,4885.64,4278.97,4152.31,4513.33,1617,1596,74.249,0,0,0,0,
109,4400.51,4087.18,4551.79,4184.1,3962.56,4340.51,4073.33,4452.31,4271.28,4180.51,4855.38,4251.28,4124.62,4492.31,1617,1597,74.257,0,0,0,0,
110,4335.38,4063.59,4540.51,4180,3956.41,4355.9,4066.67,4439.49,4261.54,4174.36,4845.64,4238.97,4098.97,4484.62,1618,1595,74.265,0,0,0,0,
111,4369.23,4065.13,4548.72,4185.64,3945.13,4340.51,4066.67,4447.69,4273.33,4184.62,4855.38,4244.62,4100.51,4497.95,1618,1594,74.273,0,0,0,0,
112,4377.44,4063.59,4553.85,4180.51,3951.79,4338.97,4072.82,4450.26,4275.9,4182.56,4857.44,4247.18,4108.21,4508.21,1619,1594,74.281,0,0,0,0,
113,4358.46,4066.67,4550.26,4181.03,3964.1,4344.1,4076.92,4452.31,4267.69,4181.03,4858.46,4246.67,4107.69,4514.87,1616,1596,74.289,0,0,0,0,
114,4365.64,4073.85,4546.15,4185.13,3956.41,4348.72,4080.51,4456.41,4255.38,4174.87,4856.41,4243.59,4096.41,4520.51,1617,1597,74.296,0,0,0,0,
115,4375.9,4083.08,4551.28,4186.15,3961.03,4358.46,4093.85,4468.72,4269.74,4180.51,4863.08,4248.21,4095.9,4533.85,1617,1597,74.304,0,0,0,0,
116,4391.28,4093.85,4558.46,4190.77,3980,4352.31,4104.1,4489.74,4297.95,4208.72,4886.15,4262.56,4124.62,4554.87,1615,1598,74.312,0,0,0,0,
117,4393.33,4090.26,4557.95,4191.28,3973.85,4341.03,4102.56,4498.97,4299.49,4217.95,4899.49,4266.67,4143.59,4561.03,1615,1597,74.32,0,0,0,0,
118,4372.82,4075.38,4552.31,4175.9,3965.13,4351.28,4096.41,4485.64,4295.9,4199.49,4887.18,4260,4128.21,4552.82,1614,1595,74.328,0,0,0,0,
119,4372.82,4077.95,4556.92,4171.79,3973.85,4351.28,4093.33,4475.38,4292.82,4188.21,4877.44,4263.08,4117.44,4562.56,1614,1592,74.336,0,0,0,0,
120,4386.67,4084.62,4563.59,4182.05,3964.1,4336.92,4089.74,4471.79,4263.08,4183.08,4876.92,4267.18,4116.92,4575.38,1612,1592,74.343,0,0,0,0,
121,4370.26,4066.67,4554.87,4171.28,3953.33,4351.28,4082.05,4464.62,4240.51,4175.9,4870.77,4252.31,4093.33,4560.51,1612,1590,74.351,0,0,0,0,
122,4366.67,4064.62,4555.9,4164.1,3970.77,4361.03,4085.64,4472.31,4271.28,4181.03,4873.33,4250.77,4087.18,4555.9,1611,1592,74.359,0,0,0,0,
123,4397.44,4086.67,4567.18,4179.49,3975.9,4342.56,4093.33,4477.95,4285.13,4185.13,4878.46,4263.08,4110.77,4574.36,1612,1591,74.367,0,0,0,0,
124,4396.41,4088.21,4561.03,4179.49,3960,4341.03,4087.18,4466.67,4262.56,4181.54,4870.26,4255.9,4107.18,4575.9,1610,1592,74.375,0,0,0,0,
125,4368.72,4076.92,4549.23,4164.1,3957.44,4343.08,4084.1,4468.21,4272.82,4186.15,4865.64,4248.21,4091.28,4565.13,1610,1593,74.382,0,0,0,0,
126,4365.64,4082.56,4546.15,4159.49,3960.51,4329.23,4089.23,4481.03,4293.85,4194.36,4876.41,4254.36,4103.08,4567.69,1610,1591,74.39,0,0,0,0,
127,4370.26,4086.67,4540,4157.44,3955.9,4328.72,4085.64,4479.49,4282.05,4190.77,4880.51,4255.38,4108.21,4571.28,1609,1592,74.398,0,0,0,0,
128,4361.54,4078.46,4539.49,4156.41,3956.92,4349.74,4084.62,4471.28,4268.21,4180,4867.69,4254.87,4092.82,4568.72,1609,1592,74.406,0,0,0,0,
0,4355.9,4072.31,4546.15,4158.97,3962.56,4377.44,4091.28,4462.05,4258.97,4163.59,4855.9,4260,4087.69,4565.64,1608,1593,74.414,0,0,0,0,
1,4366.67,4077.95,4555.9,4155.9,3960.51,4369.74,4090.77,4463.08,4266.67,4166.15,4865.13,4268.72,4106.67,4575.9,1607,1592,74.421,0,0,0,0,
2,4384.62,4093.33,4570.26,4158.97,3953.33,4327.18,4092.82,4482.56,4298.46,4198.97,4888.21,4287.69,4127.69,4597.44,1605,1592,74.429,0,0,0,0,
3,4384.1,4099.49,4571.28,4171.79,3955.38,4320,4097.95,4488.21,4298.46,4208.72,4894.87,4292.82,4123.08,4600,1604,1592,74.437,0,0,0,0,
4,4367.18,4091.28,4552.82,4168.72,3970.26,4352.82,4085.13,4464.1,4253.85,4172.31,4875.9,4269.74,4098.97,4584.1,1601,1592,74.445,0,0,0,0,
5,4366.67,4088.21,4545.13,4158.46,3970.77,4362.05,4075.9,4453.85,4233.85,4150.26,4866.67,4258.46,4089.74,4583.08,1600,1595,74.453,0,0,0,0,
6,4384.1,4093.33,4555.38,4161.03,3954.87,4345.13,4086.15,4467.69,4262.56,4172.31,4885.64,4274.87,4107.18,4601.54,1598,1594,74.461,0,0,0,0,
7,4398.46,4100,4564.1,4168.72,3954.36,4338.97,4093.85,4481.03,4285.64,4189.74,4902.56,4285.64,4130.26,4612.82,1597,1596,74.468,0,0,0,0,
8,4408.72,4111.79,4566.67,4171.79,3975.38,4340.51,4094.87,4489.23,4284.62,4186.67,4896.92,4284.1,4136.41,4614.36,1596,1594,74.476,0,0,0,0,
9,4417.44,4112.31,4564.62,4168.21,3989.74,4354.87,4094.36,4492.31,4298.46,4185.64,4888.72,4280.51,4123.59,4614.36,1594,1595,74.484,0,0,0,0,
10,4414.87,4094.36,4554.87,4156.92,3976.92,4375.9,4090.77,4482.05,4298.46,4175.38,4880,4270.77,4104.62,4604.62,1594,1594,74.492,0,0,0,0,
11,4409.74,4084.62,4550.26,4148.21,3956.92,4367.18,4095.38,4471.79,4262.56,4161.54,4869.74,4259.49,4094.36,4596.92,1591,1596,74.5,0,0,0,0,
12,4422.05,4094.36,4559.49,4151.28,3953.85,4338.46,4109.23,4484.1,4258.46,4166.15,4880.51,4268.21,4100,4608.72,1591,1597,74.508,0,0,0,0,
13,4433.85,4097.44,4563.08,4153.85,3959.49,4333.33,4113.33,4498.46,4292.31,4174.87,4893.85,4279.49,4111.79,4623.08,1590,1596,74.515,0,0,0,0,
14,4429.23,4087.69,4553.85,4151.79,3959.49,4343.59,4104.62,4488.72,4290.26,4169.23,4877.95,4268.72,4105.13,4616.92,1590,1594,74.523,0,0,0,0,
15,4428.21,4088.21,4551.79,4152.82,3954.36,4335.9,4100.51,4477.95,4267.18,4166.15,4861.54,4259.49,4093.33,4610.26,1589,1594,74.531,0,0,0,0,
16,4431.28,4091.79,4553.33,4154.36,3957.95,4339.49,4099.49,4478.97,4272.82,4166.15,4863.59,4266.67,4091.79,4615.9,1590,1593,74.539,0,0,0,0,
17,4430.77,4084.62,4552.31,4150.77,3960.51,4353.33,4092.82,4476.92,4284.1,4163.08,4864.62,4265.13,4088.21,4616.41,1589,1594,74.547,0,0,0,0,
18,4428.21,4076.41,4550.77,4140.51,3949.23,4343.08,4082.56,4464.1,4269.23,4158.97,4860.51,4250.26,4077.44,4608.21,1591,1594,74.554,0,0,0,0,
19,4427.18,4079.49,4547.18,4141.54,3948.21,4338.97,4080.51,4451.79,4239.49,4145.13,4856.41,4248.21,4071.28,4606.15,1591,1594,74.562,0,0,0,0,
20,4434.87,4096.92,4555.9,4155.9,3966.67,4344.1,4086.67,4459.49,4246.67,4141.54,4860,4261.03,4083.59,4620.51,1591,1595,74.57,0,0,0,0,
21,4449.74,4109.74,4571.28,4161.54,3972.82,4334.36,4094.36,4478.97,4280,4161.03,4870.77,4271.28,4097.44,4635.38,1593,1595,74.578,0,0,0,0,
22,4450.26,4110.26,4565.64,4160.51,3961.03,4329.74,4091.28,4477.44,4281.03,4167.69,4869.74,4267.18,4091.79,4636.92,1593,1596,74.586,0,0,0,0,
23,4435.38,4105.13,4552.31,4157.95,3960,4346.67,4081.54,4455.9,4260,4149.23,4856.41,4253.33,4076.92,4626.15,1595,1596,74.594,0,0,0,0,
24,4428.72,4100.51,4553.85,4149.23,3961.03,4353.33,4084.62,4455.9,4262.56,4148.21,4865.64,4253.33,4072.82,4621.03,1597,1594,74.601,0,0,0,0,
25,4427.69,4097.95,4555.38,4147.69,3953.85,4340.51,4093.33,4481.54,4283.59,4166.15,4883.59,4264.1,4077.44,4626.67,1599,1593,74.609,0,0,0,0,
26,4417.95,4101.03,4546.67,4157.95,3957.95,4345.64,4085.64,4474.87,4276.41,4156.92,4867.18,4254.87,4076.92,4621.54,1599,1591,74.617,0,0,0,0,
27,4420.51,4109.23,4551.28,4167.69,3969.23,4354.36,4077.44,4452.31,4265.64,4149.74,4853.33,4247.69,4077.44,4614.36,1600,1590,74.625,0,0,0,0,
28,4428.21,4107.69,4558.97,4168.21,3961.03,4340.51,4082.56,4466.67,4291.79,4168.72,4871.79,4262.56,4079.49,4617.44,1600,1588,74.633,0,0,0,0,
29,4414.36,4092.31,4544.62,4155.38,3939.49,4345.64,4085.13,4475.9,4292.31,4165.13,4869.23,4254.87,4069.23,4607.69,1603,1588,74.64,0,0,0,0,
30,4406.67,4095.9,4534.36,4151.79,3946.67,4370.77,4090.26,4461.54,4261.03,4149.74,4853.33,4240.51,4060,4601.54,1603,1589,74.648,0,0,0,0,
31,4425.64,4120,4552.31,4166.15,3972.82,4361.54,4093.33,4468.21,4276.92,4166.15,4863.59,4254.36,4066.15,4615.9,1604,1589,74.656,0,0,0,0,
32,4430.77,4123.59,4558.46,4171.28,3972.82,4335.9,4079.49,4474.87,4301.54,4176.41,4869.74,4260.51,4074.36,4613.85,1604,1588,74.664,0,0,0,0,
33,4422.56,4114.87,4544.62,4170.77,3965.13,4337.95,4076.41,4460,4272.82,4157.95,4862.05,4251.79,4076.92,4600,1605,1587,74.672,0,0,0,0,
34,4413.85,4108.72,4535.9,4167.18,3963.08,4363.08,4085.64,4454.87,4259.49,4145.13,4851.28,4240.51,4068.21,4590.77,1604,1587,74.68,0,0,0,0,
35,4405.13,4096.92,4534.36,4154.36,3936.41,4370.77,4081.03,4459.49,4280,4151.79,4837.95,4232.82,4052.82,4582.56,1605,1587,74.687,0,0,0,0,
36,4415.38,4104.62,4547.69,4157.95,3927.69,4343.08,4084.1,4470.26,4287.18,4172.82,4849.23,4248.21,4057.44,4593.85,1604,1587,74.695,0,0,0,0,
37,4424.62,4125.64,4557.95,4174.36,3965.13,4327.18,4093.85,4485.64,4284.62,4178.97,4871.79,4263.59,4071.79,4607.18,1605,1588,74.703,0,0,0,0,
38,4404.62,4118.46,4541.54,4173.33,3968.72,4340,4078.46,4468.72,4273.85,4153.33,4861.54,4248.72,4065.13,4586.67,1605,1587,74.711,0,0,0,0,
39,4391.79,4104.1,4537.95,4163.08,3933.33,4330.77,4071.28,4453.33,4260.51,4143.08,4849.23,4241.03,4056.92,4579.49,1604,1588,74.719,0,0,0,0,
40,4399.49,4109.74,4557.95,4157.95,3931.79,4311.28,4090.77,4475.38,4274.87,4166.15,4863.59,4255.38,4070.26,4600,1606,1585,74.726,0,0,0,0,
41,4389.74,4106.67,4544.62,4149.74,3949.23,4341.54,4088.21,4470.26,4288.21,4164.62,4860.51,4248.72,4068.72,4595.38,1604,1584,74.734,0,0,0,0,
42,4374.36,4091.28,4521.03,4149.74,3944.62,4367.18,4073.85,4442.05,4264.62,4138.97,4838.97,4231.79,4042.05,4578.97,1604,1583,74.742,0,0,0,0,
43,4374.36,4088.72,4535.9,4162.05,3937.44,4344.62,4083.08,4454.87,4270.77,4150.26,4835.9,4232.82,4032.82,4580,1604,1582,74.75,0,0,0,0,
44,4384.62,4107.69,4554.87,4167.18,3943.08,4332.31,4094.87,4477.95,4303.59,4175.38,4849.74,4243.59,4057.44,4587.69,1604,1580,74.758,0,0,0,0,
45,4393.85,4121.54,4557.44,4169.23,3947.69,4348.21,4097.44,4467.69,4293.33,4162.05,4863.59,4251.28,4070.77,4596.41,1603,1578,74.766,0,0,0,0,
46,4382.56,4107.69,4550.26,4168.21,3946.15,4349.74,4087.18,4458.46,4269.23,4136.92,4856.92,4244.62,4049.23,4593.85,1604,1579,74.773,0,0,0,0,
47,4368.72,4096.92,4541.03,4154.36,3942.56,4333.33,4073.85,4460.51,4273.85,4140.51,4843.08,4233.33,4035.9,4577.95,1603,1578,74.781,0,0,0,0,
48,4382.05,4104.1,4542.56,4148.72,3933.85,4344.1,4082.05,4456.41,4285.64,4157.44,4848.72,4236.41,4049.23,4572.31,1603,1580,74.789,0,0,0,0,
49,4409.74,4119.49,4565.64,4173.33,3930.26,4353.33,4098.97,4469.74,4304.1,4168.72,4864.62,4257.44,4071.79,4593.33,1604,1578,74.797,0,0,0,0,
50,4416.92,4134.36,4579.49,4191.79,3942.56,4327.18,4090.26,4483.59,4318.97,4171.79,4866.67,4267.69,4080.51,4607.69,1603,1578,74.805,0,0,0,0,
51,4412.82,4137.95,4557.95,4178.46,3941.54,4324.1,4077.95,4461.54,4293.33,4151.28,4849.74,4249.23,4060,4586.15,1604,1576,74.813,0,0,0,0,
52,4429.23,4134.87,4554.87,4173.85,3927.69,4349.74,4088.21,4452.82,4298.46,4136.92,4837.95,4241.03,4046.15,4582.56,1604,1577,74.82,0,0,0,0,
53,4442.56,4146.67,4597.44,4191.28,3943.59,4355.9,4092.82,4474.87,4341.03,4149.74,4850.26,4261.54,4058.46,4617.95,1606,1579,74.828,0,0,0,0,
54,4436.41,4164.1,4619.49,4200,3960,4352.31,4084.1,4465.64,4309.23,4150.26,4856.41,4264.62,4064.62,4623.59,1606,1580,74.836,0,0,0,0,
55,4449.74,4167.18,4592.82,4194.87,3943.08,4349.74,4076.92,4437.95,4252.82,4133.33,4840,4244.62,4060.51,4591.28,1608,1582,74.845,0,0,0,0,
56,4484.62,4173.85,4575.38,4200,3940,4329.23,4077.95,4453.33,4277.95,4135.9,4845.13,4249.23,4074.87,4590.26,1608,1582,74.852,0,0,0,0,
57,4484.1,4174.36,4576.41,4203.08,3944.1,4320.51,4079.49,4466.15,4311.79,4142.05,4865.13,4263.08,4082.56,4607.69,1609,1582,74.859,0,0,0,0,
58,4450.26,4154.87,4571.28,4187.69,3925.64,4340.51,4068.72,4442.05,4299.49,4124.62,4848.72,4251.79,4060.51,4597.95,1610,1580,74.867,0,0,0,0,
59,4445.64,4154.87,4583.08,4188.21,3925.13,4347.18,4068.72,4440.51,4305.13,4116.41,4837.44,4251.79,4047.69,4592.82,1610,1579,74.875,0,0,0,0,
60,4464.1,4174.87,4609.74,4218.46,3943.59,4335.38,4094.87,4474.36,4332.31,4144.1,4861.03,4276.92,4068.72,4610.77,1610,1576,74.883,0,0,0,0,
61,4454.36,4168.21,4611.28,4226.15,3943.08,4340.51,4109.74,4487.69,4334.87,4163.59,4863.59,4278.46,4083.59,4610.77,1609,1577,74.891,0,0,0,0,
62,4426.67,4146.67,4589.23,4205.13,3939.49,4361.54,4090.77,4465.13,4311.28,4144.1,4841.03,4253.33,4063.59,4583.08,1610,1578,74.899,0,0,0,0,
63,4420.51,4148.21,4580.51,4206.67,3935.9,4352.82,4073.85,4450.26,4297.95,4126.67,4838.46,4246.67,4050.26,4569.74,1608,1580,74.906,0,0,0,0,
64,4432.82,4156.41,4590.77,4220,3926.15,4314.36,4082.56,4468.72,4316.41,4143.59,4853.33,4259.49,4068.21,4581.03,1609,1582,74.914,0,0,0,0,
65,4434.87,4157.44,4591.28,4218.46,3931.28,4308.21,4091.79,4480,4329.74,4151.28,4856.92,4264.1,4072.31,4582.56,1609,1581,74.922,0,0,0,0,
66,4418.46,4146.67,4569.74,4211.28,3938.46,4339.49,4082.05,4459.49,4312.82,4131.79,4835.38,4245.13,4046.15,4562.56,1610,1582,74.93,0,0,0,0,
67,4406.15,4135.9,4560,4212.82,3928.72,4347.69,4082.05,4457.95,4310.77,4134.87,4820.51,4230.26,4042.56,4550.77,1611,1581,74.938,0,0,0,0,
68,4414.87,4144.62,4570.77,4220,3920,4334.36,4099.49,4476.92,4328.72,4155.38,4834.36,4236.92,4064.62,4555.38,1611,1582,74.945,0,0,0,0,
69,4408.72,4147.18,4566.15,4211.28,3922.05,4340.51,4094.36,4467.69,4335.9,4147.69,4838.46,4239.49,4055.9,4552.31,1612,1583,74.953,0,0,0,0,
70,4392.31,4141.03,4554.36,4200.51,3930.77,4348.72,4082.05,4460.51,4348.21,4139.49,4834.36,4231.79,4044.62,4547.18,1613,1585,74.961,0,0,0,0,
71,4412.31,4159.49,4566.15,4211.28,3945.13,4338.46,4098.97,4477.95,4351.79,4150.77,4851.28,4238.46,4075.9,4557.44,1613,1584,74.969,0,0,0,0,
72,4433.33,4173.33,4585.13,4226.67,3949.23,4331.79,4111.79,4481.54,4334.87,4156.41,4864.1,4252.82,4096.41,4572.82,1613,1584,74.977,0,0,0,0,
73,4412.31,4155.38,4584.62,4218.46,3937.95,4337.44,4100,4477.44,4346.67,4154.87,4850.77,4251.79,4076.41,4572.82,1614,1583,74.985,0,0,0,0,
74,4385.13,4141.54,4569.74,4202.56,3930.26,4351.28,4090.26,4470.77,4357.95,4145.13,4830.77,4235.38,4055.38,4555.9,1614,1582,74.992,0,0,0,0,
75,4377.44,4140,4565.64,4199.49,3923.59,4357.95,4088.72,4452.82,4332.31,4126.15,4826.15,4227.18,4049.23,4545.64,1615,1582,75,0,0,0,0,
76,4383.08,4143.08,4584.62,4207.18,3920,4338.97,4091.79,4463.08,4352.82,4141.54,4844.62,4243.59,4068.21,4563.08,1615,1583,75.008,0,0,0,0,
77,4398.46,4158.46,4599.49,4217.95,3934.36,4319.49,4095.9,4486.15,4392.31,4164.1,4850.77,4259.49,4090.26,4581.54,1616,1586,75.016,0,0,0,0,
78,4411.79,4172.31,4594.87,4223.08,3944.1,4333.85,4091.28,4468.72,4348.21,4142.05,4832.82,4248.72,4079.49,4583.59,1616,1587,75.024,0,0,0,0,
79,4413.85,4170.77,4597.44,4221.54,3930.26,4344.62,4090.77,4447.69,4303.59,4129.74,4832.82,4243.59,4066.15,4594.87,1616,1588,75.031,0,0,0,0,
80,4400.51,4157.44,4601.54,4210.26,3916.41,4328.21,4089.23,4455.38,4328.21,4133.33,4838.97,4249.74,4068.21,4600.51,1616,1587,75.039,0,0,0,0,
81,4400.51,4151.28,4600.51,4203.08,3923.08,4322.56,4083.59,4462.05,4347.18,4124.1,4840,4254.87,4068.21,4595.38,1615,1588,75.047,0,0,0,0,
82,4418.46,4152.82,4606.15,4203.59,3930.77,4340,4084.62,4457.44,4342.56,4131.79,4848.72,4257.95,4072.31,4600,1616,1589,75.055,0,0,0,0,
83,4408.21,4142.05,4601.54,4194.87,3923.08,4363.08,4087.69,4447.69,4341.54,4142.05,4840.51,4249.23,4075.38,4593.85,1615,1590,75.063,0,0,0,0,
84,4393.85,4138.46,4602.05,4203.08,3924.1,4364.62,4088.21,4442.05,4335.38,4136.41,4832.82,4246.67,4069.74,4586.15,1615,1589,75.071,0,0,0,0,
85,4415.9,4157.44,4618.46,4232.82,3936.41,4340,4092.82,4461.03,4340.51,4149.23,4854.87,4268.72,4077.95,4606.15,1614,1588,75.078,0,0,0,0,
86,4417.44,4157.95,4614.87,4227.69,3932.31,4333.85,4094.87,4474.36,4345.13,4156.92,4861.54,4273.33,4078.97,4611.28,1615,1587,75.086,0,0,0,0,
87,4387.18,4143.08,4595.9,4198.97,3920,4349.23,4090.77,4453.85,4325.13,4135.38,4835.9,4249.74,4060,4584.62,1615,1588,75.094,0,0,0,0,
88,4384.1,4150.77,4598.97,4201.54,3928.72,4334.87,4089.23,4441.03,4317.95,4132.82,4832.82,4246.15,4066.67,4576.92,1615,1589,75.102,0,0,0,0,
89,4387.69,4152.82,4599.49,4209.23,3936.41,4325.13,4086.15,4443.08,4329.74,4132.31,4835.38,4250.77,4075.9,4578.46,1615,1592,75.11,0,0,0,0,
90,4373.33,4135.9,4583.59,4196.92,3921.03,4356.41,4082.05,4442.56,4325.64,4115.38,4815.38,4238.97,4056.92,4568.21,1615,1591,75.117,0,0,0,0,
91,4377.44,4130.77,4589.23,4195.38,3907.18,4349.74,4081.03,4455.9,4332.82,4131.28,4821.03,4241.54,4054.36,4570.77,1615,1593,75.125,0,0,0,0,
92,4393.85,4144.1,4602.56,4206.15,3904.1,4310.77,4083.08,4475.9,4361.03,4160,4847.69,4256.92,4075.9,4584.62,1616,1591,75.133,0,0,0,0,
93,4387.69,4151.28,4594.36,4205.13,3915.9,4326.67,4087.18,4466.67,4348.21,4145.64,4845.13,4255.9,4086.15,4586.15,1615,1590,75.141,0,0,0,0,
94,4372.82,4142.56,4585.13,4197.95,3936.92,4358.46,4089.74,4454.36,4314.36,4129.23,4829.74,4246.15,4085.64,4581.03,1616,1589,75.149,0,0,0,0,
95,4371.79,4134.36,4588.21,4201.54,3931.79,4343.08,4093.85,4472.82,4334.87,4150.26,4840.51,4249.74,4089.23,4583.08,1616,1587,75.157,0,0,0,0,
96,4372.31,4135.38,4589.23,4195.38,3908.21,4331.79,4093.33,4483.59,4362.56,4161.54,4852.82,4257.44,4088.21,4584.1,1615,1589,75.164,0,0,0,0,
97,4373.85,4137.44,4586.67,4185.64,3907.18,4346.15,4092.31,4472.31,4341.54,4148.72,4846.67,4256.92,4088.72,4577.95,1615,1590,75.172,0,0,0,0,
98,4380.51,4137.95,4588.21,4197.44,3911.28,4338.46,4098.46,4473.33,4328.72,4158.97,4847.18,4258.97,4095.9,4580,1614,1592,75.18,0,0,0,0,
99,4378.46,4138.97,4586.67,4206.15,3907.69,4321.54,4096.41,4474.87,4340.51,4173.33,4850.26,4262.56,4094.87,4585.13,1614,1593,75.188,0,0,0,0,
100,4368.21,4140,4582.56,4195.9,3926.15,4332.31,4087.18,4464.1,4332.82,4156.92,4842.05,4257.95,4087.69,4575.38,1614,1593,75.196,0,0,0,0,
101,4375.38,4149.23,4587.69,4201.54,3945.13,4351.28,4099.49,4470.77,4323.59,4148.21,4842.05,4258.46,4096.92,4575.38,1614,1591,75.204,0,0,0,0,
102,4384.62,4159.49,4588.21,4213.33,3935.38,4353.85,4110.26,4482.56,4325.64,4160,4851.79,4264.1,4107.18,4585.64,1614,1591,75.211,0,0,0,0,
103,4371.79,4152.31,4573.85,4194.87,3926.15,4350.26,4093.85,4464.1,4316.41,4153.85,4841.03,4253.33,4088.21,4566.67,1615,1591,75.219,0,0,0,0,
104,4362.56,4143.59,4572.31,4185.13,3931.28,4345.13,4084.62,4452.31,4306.15,4143.59,4829.74,4241.03,4076.41,4544.62,1615,1590,75.227,0,0,0,0,
105,4365.13,4144.1,4582.56,4202.05,3919.49,4333.33,4094.36,4474.87,4311.79,4148.72,4841.03,4246.67,4094.87,4550.26,1616,1591,75.235,0,0,0,0,
106,4355.9,4136.41,4574.36,4201.03,3906.67,4332.82,4096.41,4478.97,4316.41,4147.18,4837.95,4245.64,4093.33,4544.1,1616,1591,75.243,0,0,0,0,
107,4349.74,4135.38,4569.23,4200.51,3920.51,4338.97,4090.77,4463.59,4320,4140.51,4827.18,4238.97,4074.87,4533.85,1616,1593,75.25,0,0,0,0,
108,4363.08,4150.26,4586.15,4217.95,3929.23,4337.95,4092.31,4471.28,4329.23,4154.87,4843.08,4248.72,4085.64,4547.69,1618,1595,75.258,0,0,0,0,
109,4366.15,4156.92,4587.18,4210.26,3923.08,4343.08,4095.9,4477.44,4326.67,4169.23,4847.18,4252.82,4096.92,4547.69,1616,1596,75.266,0,0,0,0,
110,4351.28,4154.36,4570.77,4186.67,3929.23,4349.23,4096.41,4463.08,4311.28,4155.9,4827.18,4240,4082.56,4533.33,1617,1596,75.274,0,0,0,0,
111,4340.51,4150.26,4567.69,4185.13,3932.82,4342.05,4088.72,4455.9,4298.97,4134.36,4824.62,4233.33,4071.28,4528.21,1617,1594,75.282,0,0,0,0,
112,4337.44,4138.97,4570.26,4189.74,3914.87,4336.92,4080,4453.33,4295.38,4132.82,4828.72,4232.31,4075.9,4522.56,1617,1594,75.29,0,0,0,0,
113,4340.51,4132.31,4570.77,4193.33,3906.15,4334.87,4080.51,4445.13,4299.49,4140,4826.15,4234.36,4077.44,4527.18,1617,1594,75.297,0,0,0,0,
114,4343.59,4135.9,4572.31,4199.49,3915.9,4327.18,4075.9,4441.03,4293.33,4135.38,4829.23,4244.1,4074.36,4538.46,1618,1593,75.305,0,0,0,0,
115,4338.97,4138.97,4572.31,4201.54,3915.9,4326.15,4065.64,4441.54,4283.08,4136.41,4832.31,4248.21,4084.62,4531.28,1617,1593,75.313,0,0,0,0,
116,4331.28,4141.54,4572.82,4201.03,3912.31,4333.85,4072.31,4449.23,4290.77,4155.9,4829.74,4238.97,4092.31,4521.54,1617,1594,75.321,0,0,0,0,
117,4325.64,4137.44,4569.74,4194.36,3906.15,4337.95,4086.67,4461.54,4304.62,4156.92,4825.64,4230.77,4078.46,4520,1618,1593,75.329,0,0,0,0,
118,4322.05,4128.21,4557.95,4185.13,3895.38,4333.85,4079.49,4454.36,4294.36,4135.9,4816.41,4226.15,4058.97,4511.79,1618,1596,75.336,0,0,0,0,
119,4322.05,4129.74,4552.31,4186.15,3898.46,4329.23,4067.18,4438.97,4277.44,4124.62,4810.26,4224.1,4055.38,4505.13,1619,1596,75.344,0,0,0,0,
120,4323.59,4130.77,4556.92,4180.51,3913.85,4326.67,4071.79,4440,4271.79,4127.18,4814.36,4228.72,4061.54,4509.74,1618,1597,75.352,0,0,0,0,
121,4318.46,4122.56,4557.95,4172.82,3914.87,4326.67,4080,4442.05,4261.54,4119.49,4815.38,4224.1,4071.79,4510.77,1620,1595,75.36,0,0,0,0,
122,4308.21,4118.97,4554.87,4180.51,3907.18,4336.41,4084.1,4441.03,4260,4120,4811.28,4215.38,4078.46,4506.67,1618,1594,75.368,0,0,0,0,
123,4303.08,4121.03,4551.79,4190.26,3909.74,4344.1,4083.08,4442.56,4272.31,4134.87,4807.69,4221.03,4069.74,4504.1,1619,1593,75.376,0,0,0,0,
124,4307.69,4124.62,4554.87,4195.9,3913.85,4336.92,4073.85,4439.49,4269.74,4133.33,4806.67,4231.28,4061.03,4504.1,1619,1593,75.383,0,0,0,0,
125,4324.1,4137.44,4567.69,4202.56,3907.69,4325.13,4074.36,4448.72,4270.26,4131.28,4821.54,4241.54,4080,4511.79,1619,1593,75.391,0,0,0,0,
126,4336.41,4148.72,4576.41,4204.62,3906.15,4327.18,4083.59,4466.15,4285.64,4143.59,4832.82,4249.74,4097.95,4517.44,1618,1593,75.399,0,0,0,0,
127,4322.56,4135.9,4566.15,4196.92,3914.36,4335.9,4079.49,4458.46,4278.46,4133.33,4809.74,4238.97,4070.77,4504.62,1619,1595,75.407,0,0,0,0,
128,4306.15,4123.08,4553.33,4192.31,3917.44,4333.85,4070.77,4440.51,4268.72,4115.9,4794.87,4227.18,4049.23,4491.79,1620,1595,75.415,0,0,0,0,
0,4318.46,4133.33,4556.92,4191.79,3910.26,4328.72,4076.92,4447.18,4286.15,4140,4817.95,4233.33,4082.56,4502.05,1618,1597,75.422,0,0,0,0,
1,4331.28,4142.05,4558.46,4187.18,3908.72,4326.15,4077.44,4446.15,4282.05,4161.54,4826.67,4235.38,4102.05,4510.77,1619,1597,75.43,0,0,0,0,
2,4326.67,4136.92,4553.33,4190.77,3908.72,4325.64,4066.15,4426.67,4255.9,4136.41,4809.23,4229.74,4081.54,4503.08,1619,1598,75.438,0,0,0,0,
3,4323.59,4132.31,4560,4198.97,3901.03,4334.36,4067.69,4428.72,4257.44,4114.36,4808.21,4231.28,4080,4503.59,1620,1600,75.446,0,0,0,0,
4,4328.21,4127.69,4570.26,4193.33,3892.31,4336.92,4074.36,4443.59,4266.15,4127.69,4817.44,4233.85,4094.36,4508.21,1619,1599,75.454,0,0,0,0,
5,4338.97,4121.54,4569.23,4187.69,3891.28,4319.49,4074.36,4453.33,4277.95,4151.28,4823.59,4239.49,4098.97,4511.28,1619,1599,75.462,0,0,0,0,
6,4343.59,4124.62,4567.69,4200,3894.87,4307.69,4074.87,4461.54,4303.59,4157.95,4831.28,4247.69,4105.13,4517.95,1619,1596,75.469,0,0,0,0,
7,4332.82,4128.21,4573.33,4202.56,3893.33,4320,4075.38,4456.41,4289.74,4151.79,4833.33,4247.69,4106.15,4517.95,1619,1597,75.477,0,0,0,0,
8,4323.08,4122.05,4572.31,4187.18,3894.87,4331.79,4073.85,4443.59,4255.38,4150.77,4830.26,4247.18,4094.36,4509.23,1619,1594,75.485,0,0,0,0,
9,4321.03,4112.82,4561.03,4182.05,3892.82,4330.77,4074.36,4443.08,4266.15,4146.67,4826.67,4247.18,4084.1,4507.18,1619,1599,75.493,0,0,0,0,
10,4315.9,4110.77,4552.31,4183.08,3879.49,4322.05,4073.85,4447.18,4281.54,4134.36,4822.05,4239.49,4082.05,4508.72,1618,1600,75.501,0,0,0,0,
11,4314.36,4119.49,4553.85,4185.64,3883.59,4311.79,4067.69,4441.03,4262.05,4132.82,4819.49,4235.38,4084.62,4506.67,1619,1600,75.508,0,0,0,0,
12,4311.79,4118.46,4553.33,4189.23,3897.95,4311.79,4061.54,4431.28,4256.92,4136.92,4810.77,4236.41,4076.41,4499.49,1619,1599,75.516,0,0,0,0,
13,4298.97,4103.08,4542.56,4183.08,3894.36,4319.49,4061.54,4423.59,4263.08,4126.15,4796.41,4230.26,4062.05,4489.23,1619,1599,75.524,0,0,0,0,
14,4293.85,4100,4536.92,4177.44,3892.31,4325.64,4071.79,4430.77,4252.31,4116.92,4797.44,4227.18,4066.67,4488.21,1619,1598,75.532,0,0,0,0,
15,4300.51,4105.13,4543.08,4190.26,3903.59,4331.28,4077.44,4442.56,4264.1,4124.62,4807.69,4231.28,4074.87,4492.31,1619,1598,75.54,0,0,0,0,
16,4305.13,4106.15,4552.31,4201.54,3905.13,4335.9,4073.33,4447.18,4289.74,4135.9,4812.82,4233.33,4073.33,4489.74,1617,1596,75.548,0,0,0,0,
17,4308.21,4110.77,4553.85,4188.72,3897.44,4337.95,4075.38,4454.87,4287.69,4141.03,4815.38,4234.36,4084.62,4492.31,1617,1596,75.555,0,0,0,0,
18,4302.56,4110.77,4540.51,4178.46,3894.36,4336.41,4080,4463.08,4275.9,4138.46,4812.82,4232.31,4096.41,4492.31,1617,1594,75.563,0,0,0,0,
19,4292.31,4104.62,4536.92,4194.87,3897.95,4329.74,4073.85,4460,4276.92,4136.41,4811.79,4230.77,4092.31,4487.69,1615,1595,75.571,0,0,0,0,
20,4299.49,4111.28,4552.82,4201.54,3912.31,4327.69,4073.85,4461.54,4290.26,4150.77,4824.62,4243.59,4097.95,4500,1617,1593,75.579,0,0,0,0,
21,4313.33,4122.05,4563.59,4188.21,3912.31,4327.69,4082.05,4466.67,4300.51,4163.08,4831.79,4255.9,4109.74,4511.79,1615,1594,75.587,0,0,0,0,
22,4307.18,4116.41,4551.79,4191.28,3892.82,4326.67,4077.95,4452.31,4280,4149.23,4824.62,4248.72,4102.56,4497.95,1617,1598,75.594,0,0,0,0,
23,4292.31,4103.59,4538.97,4200,3892.31,4331.28,4068.21,4436.92,4257.44,4131.28,4823.08,4241.54,4088.72,4485.13,1617,1597,75.602,0,0,0,0,
24,4295.38,4103.59,4540,4188.21,3902.56,4334.36,4066.15,4439.49,4269.74,4131.28,4824.1,4246.15,4091.28,4493.33,1617,1598,75.61,0,0,0,0,
25,4298.46,4108.21,4535.9,4178.97,3892.82,4323.59,4066.67,4442.05,4274.36,4136.41,4811.79,4244.1,4093.85,4491.28,1618,1596,75.618,0,0,0,0,
26,4283.59,4105.13,4522.56,4186.67,3890.26,4323.08,4064.1,4438.97,4263.59,4131.28,4804.1,4232.82,4087.69,4473.33,1618,1595,75.626,0,0,0,0,
27,4280.51,4101.54,4524.62,4186.67,3907.18,4335.9,4069.74,4451.79,4290.26,4134.36,4816.92,4234.36,4092.31,4469.74,1618,1593,75.634,0,0,0,0,
28,4297.95,4103.59,4540.51,4185.13,3914.87,4333.33,4078.97,4472.82,4322.05,4156.92,4831.28,4247.18,4106.15,4484.62,1618,1594,75.641,0,0,0,0,
29,4306.67,4114.36,4547.69,4200,3908.21,4321.54,4083.08,4476.92,4317.44,4168.21,4835.9,4252.31,4112.82,4494.87,1618,1593,75.649,0,0,0,0,
30,4294.36,4111.28,4541.03,4202.56,3893.33,4323.59,4077.44,4464.62,4305.64,4151.28,4826.15,4242.56,4105.13,4482.56,1617,1594,75.657,0,0,0,0,
31,4280,4089.23,4529.74,4177.95,3877.95,4329.74,4068.72,4449.74,4293.85,4132.82,4811.28,4229.23,4085.13,4466.15,1619,1593,75.665,0,0,0,0,
32,4276.92,4080,4524.62,4165.13,3877.44,4327.69,4070.77,4443.59,4275.9,4133.85,4808.72,4226.67,4075.38,4468.72,1617,1593,75.673,0,0,0,0,
33,4279.49,4090.77,4528.21,4182.56,3893.33,4322.05,4078.46,4447.69,4280,4137.44,4815.38,4231.28,4091.79,4473.33,1618,1595,75.68,0,0,0,0,
34,4279.49,4096.41,4529.74,4191.28,3907.69,4330.26,4077.44,4450.77,4296.92,4133.85,4814.36,4232.31,4095.38,4463.08,1618,1596,75.688,0,0,0,0,
35,4276.41,4098.97,4533.33,4182.05,3906.15,4343.08,4077.95,4447.18,4290.77,4137.44,4814.87,4226.67,4072.82,4457.44,1618,1597,75.696,0,0,0,0,
36,4278.46,4104.62,4540,4184.1,3890.26,4337.95,4085.64,4449.23,4277.44,4140.51,4815.9,4223.59,4076.41,4463.08,1619,1598,75.704,0,0,0,0,
37,4283.08,4095.9,4532.31,4190.77,3882.56,4325.13,4081.54,4452.31,4274.36,4131.28,4804.1,4217.95,4094.87,4456.92,1618,1598,75.712,0,0,0,0,
38,4277.44,4089.23,4517.44,4186.15,3895.9,4324.62,4066.67,4444.62,4275.9,4124.1,4801.03,4204.1,4083.08,4441.54,1619,1596,75.72,0,0,0,0,
39,4268.72,4096.41,4517.95,4182.05,3896.92,4326.67,4067.69,4441.54,4278.97,4132.82,4813.33,4202.56,4073.33,4442.05,1618,1594,75.727,0,0,0,0,
40,4268.21,4095.9,4522.05,4185.64,3889.74,4335.9,4078.97,4450.26,4276.41,4135.9,4808.72,4211.79,4087.18,4444.62,1618,1593,75.735,0,0,0,0,
41,4271.28,4091.28,4520,4186.15,3903.59,4350.26,4080.51,4455.38,4278.97,4130.26,4800.51,4215.9,4095.9,4442.05,1618,1593,75.743,0,0,0,0,
42,4276.41,4101.54,4523.59,4184.1,3911.79,4343.08,4074.87,4459.49,4293.85,4140.51,4816.41,4220,4101.03,4450.26,1619,1595,75.751,0,0,0,0,
43,4284.1,4111.28,4537.44,4192.82,3896.41,4327.18,4075.38,4459.49,4294.36,4150.77,4834.36,4225.13,4110.26,4462.05,1618,1595,75.759,0,0,0,0,
44,4276.92,4104.62,4538.97,4204.1,3887.69,4326.67,4073.85,4445.64,4275.38,4139.49,4827.69,4220,4105.64,4452.31,1619,1597,75.766,0,0,0,0,
45,4265.64,4098.46,4526.67,4200,3894.87,4325.13,4066.15,4444.62,4282.56,4133.33,4814.87,4217.44,4100,4444.1,1619,1598,75.774,0,0,0,0,
46,4274.36,4100.51,4527.18,4188.21,3898.46,4320,4068.21,4457.44,4297.95,4145.13,4815.38,4230.26,4104.62,4456.92,1621,1600,75.782,0,0,0,0,
47,4282.56,4097.44,4536.41,4183.08,3895.9,4324.62,4073.85,4451.28,4275.9,4143.08,4814.36,4233.85,4101.54,4458.46,1621,1599,75.79,0,0,0,0,
48,4276.92,4096.92,4537.95,4189.23,3894.87,4328.21,4069.23,4435.38,4258.46,4135.38,4816.92,4230.77,4098.97,4448.72,1620,1600,75.798,0,0,0,0,
49,4278.46,4105.64,4536.41,4198.97,3894.36,4325.13,4064.1,4442.56,4280,4146.67,4836.92,4236.41,4113.33,4453.85,1621,1598,75.806,0,0,0,0,
50,4282.05,4107.69,4537.44,4200,3893.33,4324.62,4068.21,4457.44,4297.44,4154.87,4843.59,4237.95,4124.62,4461.03,1621,1596,75.813,0,0,0,0,
51,4278.97,4105.13,4539.49,4195.9,3898.46,4326.67,4074.87,4459.49,4288.21,4153.33,4832.31,4235.9,4124.1,4458.46,1621,1594,75.821,0,0,0,0,
52,4279.49,4104.1,4540,4196.41,3907.18,4330.26,4075.9,4456.92,4284.62,4156.92,4827.18,4235.38,4125.13,4457.95,1620,1593,75.829,0,0,0,0,
53,4284.1,4106.15,4536.92,4195.38,3910.77,4334.87,4074.87,4455.38,4290.26,4158.46,4829.23,4232.82,4124.1,4456.92,1621,1592,75.837,0,0,0,0,
54,4292.31,4118.46,4535.38,4194.36,3909.23,4334.87,4080.51,4458.97,4295.38,4164.1,4835.9,4236.41,4126.67,4456.92,1618,1592,75.845,0,0,0,0,
55,4299.49,4126.15,4541.54,4204.62,3905.13,4336.92,4088.21,4465.64,4299.49,4172.82,4845.13,4245.64,4135.38,4462.56,1620,1594,75.853,0,0,0,0,
56,4283.08,4106.67,4538.97,4204.1,3893.85,4333.85,4075.9,4459.49,4288.72,4160.51,4835.38,4241.03,4126.15,4455.38,1619,1594,75.86,0,0,0,0,
57,4262.05,4089.74,4524.62,4186.67,3887.18,4324.1,4057.44,4444.62,4276.41,4144.62,4823.08,4226.67,4109.74,4442.56,1618,1598,75.868,0,0,0,0,
58,4268.21,4102.05,4521.54,4182.05,3903.08,4326.15,4064.1,4446.67,4284.1,4155.38,4840.51,4230.77,4117.95,4444.62,1619,1599,75.876,0,0,0,0,
59,4275.38,4107.18,4524.62,4187.69,3910.26,4332.82,4079.49,4468.72,4298.46,4170.26,4847.18,4242.05,4131.28,4450.26,1618,1600,75.884,0,0,0,0,
60,4267.18,4094.87,4522.56,4188.72,3893.85,4330.77,4078.46,4475.9,4298.97,4172.31,4836.41,4237.95,4124.1,4443.59,1618,1600,75.892,0,0,0,0,
61,4259.49,4095.9,4520.51,4190.26,3896.41,4335.9,4073.85,4464.1,4296.41,4167.18,4837.95,4229.23,4116.92,4432.82,1618,1600,75.899,0,0,0,0,
62,4252.82,4106.15,4522.56,4191.28,3916.41,4338.97,4074.87,4456.92,4296.41,4156.92,4838.46,4229.23,4120.51,4429.23,1619,1599,75.907,0,0,0,0,
63,4245.64,4102.56,4527.18,4187.69,3904.1,4328.72,4074.87,4460.51,4287.69,4149.74,4827.69,4231.28,4121.03,4429.74,1618,1598,75.915,0,0,0,0,
64,4255.38,4093.85,4533.33,4185.64,3883.08,4331.28,4080,4464.1,4280,4150.26,4822.56,4228.72,4118.46,4435.38,1618,1597,75.923,0,0,0,0,
65,4263.59,4096.92,4538.46,4187.18,3903.08,4346.15,4085.13,4463.59,4290.26,4151.79,4829.74,4230.77,4118.97,4449.74,1618,1596,75.931,0,0,0,0,
66,4255.9,4102.05,4540.51,4192.82,3918.46,4340.51,4079.49,4463.59,4297.44,4147.69,4833.85,4236.41,4123.59,4465.64,1619,1596,75.939,0,0,0,0,
67,4246.67,4099.49,4537.44,4201.03,3902.56,4332.31,4068.72,4454.36,4280,4132.82,4823.08,4232.31,4118.46,4464.1,1619,1597,75.946,0,0,0,0,
68,4235.38,4095.9,4534.87,4202.05,3902.05,4341.54,4063.08,4441.54,4270.77,4120.51,4814.87,4224.1,4109.74,4456.41,1620,1597,75.954,0,0,0,0,
69,4234.36,4100,4546.15,4197.44,3912.31,4340,4070.26,4450.77,4294.36,4137.95,4830.77,4233.33,4116.92,4468.21,1619,1598,75.962,0,0,0,0,
70,4248.72,4102.05,4560,4190.77,3903.08,4328.72,4083.59,4470.77,4314.36,4161.03,4848.72,4248.21,4128.72,4482.05,1620,1598,75.97,0,0,0,0,
71,4246.67,4092.82,4553.33,4183.59,3890.77,4332.31,4083.08,4470.77,4308.72,4142.05,4838.46,4242.05,4117.44,4472.31,1620,1598,75.978,0,0,0,0,
72,4224.62,4088.21,4538.46,4181.54,3889.23,4337.44,4070.26,4451.28,4294.36,4115.9,4817.95,4228.72,4096.41,4456.41,1620,1598,75.985,0,0,0,0,
73,4227.18,4093.33,4536.92,4190.26,3894.87,4333.85,4067.18,4436.41,4274.87,4119.49,4809.74,4225.13,4097.44,4455.38,1618,1598,75.993,0,0,0,0,
74,4244.62,4094.36,4547.69,4201.54,3905.64,4335.38,4069.23,4436.92,4265.13,4124.62,4820,4227.18,4113.85,4456.92,1619,1598,76.001,0,0,0,0,
75,4238.97,4092.82,4551.79,4194.87,3905.64,4336.92,4066.67,4444.62,4277.95,4123.08,4830.77,4227.18,4121.03,4447.18,1618,1596,76.009,0,0,0,0,
76,4232.82,4099.49,4550.26,4181.54,3894.87,4334.36,4070.77,4443.08,4287.18,4134.36,4827.69,4227.18,4118.97,4442.56,1618,1596,76.017,0,0,0,0,
77,4244.62,4104.62,4551.79,4190.77,3894.36,4332.31,4073.85,4445.13,4289.23,4143.08,4831.28,4229.23,4120,4453.85,1619,1595,76.025,0,0,0,0,
78,4253.85,4097.95,4554.87,4204.1,3902.56,4330.26,4070.26,4455.38,4295.9,4132.31,4838.97,4232.82,4118.97,4459.49,1619,1596,76.032,0,0,0,0,
79,4244.62,4097.44,4554.36,4200,3897.44,4328.72,4066.15,4450.77,4289.23,4117.44,4826.67,4232.82,4106.15,4450.26,1619,1597,76.04,0,0,0,0,
80,4233.85,4107.69,4552.82,4199.49,3892.82,4327.69,4061.54,4437.44,4280,4118.97,4815.9,4228.21,4100,4441.54,1619,1597,76.048,0,0,0,0,
81,4240.51,4109.74,4554.36,4205.13,3905.64,4325.64,4062.56,4441.03,4294.87,4137.95,4826.15,4230.77,4115.38,4446.15,1620,1598,76.056,0,0,0,0,
82,4251.28,4101.54,4556.41,4201.54,3908.72,4323.59,4070.77,4449.74,4301.54,4143.59,4834.36,4235.9,4121.03,4455.38,1618,1597,76.064,0,0,0,0,
83,4251.28,4103.08,4556.92,4200.51,3886.15,4320.51,4070.77,4444.62,4287.69,4130.26,4831.79,4235.9,4112.31,4458.97,1619,1598,76.071,0,0,0,0,
84,4251.28,4108.21,4556.92,4202.05,3870.77,4315.9,4064.62,4443.08,4292.82,4131.28,4832.31,4234.87,4114.87,4461.54,1618,1596,76.079,0,0,0,0,
85,4250.77,4097.95,4554.87,4194.87,3886.67,4323.08,4064.62,4448.21,4307.69,4143.59,4832.82,4233.85,4120.51,4457.95,1617,1597,76.087,0,0,0,0,
86,4234.87,4088.72,4542.56,4191.79,3899.49,4335.9,4069.74,4445.64,4299.49,4140.51,4828.21,4230.26,4118.97,4446.67,1617,1596,76.095,0,0,0,0,
87,4227.18,4097.95,4535.38,4190.26,3896.41,4336.41,4074.36,4438.46,4286.15,4131.28,4824.1,4228.72,4117.95,4438.46,1616,1597,76.103,0,0,0,0,
88,4244.62,4106.15,4546.67,4189.74,3897.44,4326.67,4071.28,4443.59,4298.46,4137.44,4827.69,4237.95,4122.05,4444.1,1617,1595,76.111,0,0,0,0,
89,4250.26,4097.95,4549.23,4195.38,3901.03,4327.18,4065.64,4456.92,4310.26,4144.62,4827.18,4243.08,4119.49,4451.28,1616,1594,76.118,0,0,0,0,
90,4230.77,4090.26,4536.92,4200.51,3898.46,4333.33,4066.67,4458.46,4296.92,4135.9,4817.95,4234.87,4107.18,4445.13,1617,1593,76.126,0,0,0,0,
91,4218.97,4091.28,4532.82,4197.44,3896.92,4333.33,4063.08,4446.67,4284.1,4117.44,4809.23,4225.13,4094.87,4433.85,1617,1594,76.134,0,0,0,0,
92,4227.69,4091.79,4539.49,4196.41,3899.49,4331.28,4058.46,4441.03,4286.15,4116.92,4813.33,4226.67,4102.05,4434.87,1617,1594,76.142,0,0,0,0,
93,4236.92,4090.26,4542.05,4198.97,3889.74,4327.18,4067.69,4447.69,4292.31,4142.56,4827.18,4232.82,4121.54,4445.64,1617,1596,76.15,0,0,0,0,
94,4235.9,4091.28,4541.54,4189.74,3876.41,4321.03,4079.49,4450.26,4294.87,4151.28,4829.74,4233.33,4122.05,4445.64,1618,1597,76.158,0,0,0,0,
95,4229.74,4091.28,4541.54,4182.56,3882.05,4323.08,4078.46,4446.67,4297.44,4135.38,4817.95,4231.79,4111.79,4438.46,1618,1598,76.165,0,0,0,0,
96,4230.26,4090.77,4539.49,4185.64,3895.9,4327.18,4069.23,4448.21,4300.51,4133.85,4810.77,4230.26,4107.18,4436.41,1617,1599,76.173,0,0,0,0,
97,4235.38,4093.85,4538.97,4189.74,3896.41,4327.18,4070.77,4457.95,4311.28,4146.15,4812.31,4230.26,4106.67,4432.82,1618,1597,76.181,0,0,0,0,
98,4225.64,4089.23,4533.85,4185.64,3890.77,4333.85,4073.33,4457.95,4317.95,4143.59,4816.92,4228.72,4103.59,4424.1,1617,1597,76.189,0,0,0,0,
99,4217.44,4091.28,4533.85,4190.26,3891.79,4334.36,4067.18,4451.79,4311.28,4134.36,4824.62,4228.72,4113.33,4425.13,1619,1597,76.197,0,0,0,0,
100,4230.26,4106.67,4546.15,4203.59,3896.41,4323.59,4065.13,4454.87,4304.62,4134.36,4831.28,4232.82,4128.21,4436.92,1618,1597,76.204,0,0,0,0,
101,4230.26,4101.54,4549.74,4197.95,3895.38,4322.05,4065.13,4452.82,4307.69,4137.95,4826.15,4231.79,4120.51,4435.9,1619,1598,76.212,0,0,0,0,
102,4215.9,4085.64,4537.95,4182.05,3892.31,4331.28,4064.62,4443.08,4309.23,4137.44,4815.38,4225.64,4103.59,4424.1,1619,1596,76.22,0,0,0,0,
103,4222.56,4088.72,4534.87,4179.49,3894.87,4333.33,4070.26,4441.54,4287.69,4126.15,4808.21,4227.69,4101.03,4427.18,1619,1596,76.228,0,0,0,0,
104,4240,4093.85,4543.59,4187.69,3898.97,4327.69,4075.38,4445.64,4277.44,4126.15,4819.49,4237.95,4112.31,4442.05,1619,1595,76.236,0,0,0,0,
105,4235.9,4090.26,4542.05,4193.85,3887.69,4322.56,4066.67,4441.03,4299.49,4138.46,4827.69,4237.44,4121.03,4438.97,1619,1595,76.243,0,0,0,0,
106,4220.51,4088.21,4535.38,4192.82,3877.44,4314.87,4060,4440.51,4300,4130.77,4812.82,4222.05,4109.74,4423.08,1618,1592,76.251,0,0,0,0,
107,4213.33,4084.62,4536.92,4186.15,3885.13,4316.41,4062.56,4449.23,4277.95,4114.36,4803.59,4212.31,4094.36,4418.46,1618,1592,76.259,0,0,0,0,
108,4212.82,4085.13,4538.46,4186.67,3886.15,4327.18,4063.59,4457.44,4288.21,4114.36,4812.31,4221.03,4101.03,4425.64,1618,1590,76.267,0,0,0,0,
109,4214.87,4091.28,4536.41,4188.21,3880,4326.67,4063.59,4462.05,4313.33,4124.62,4814.36,4230.26,4111.79,4428.72,1618,1591,76.275,0,0,0,0,
110,4214.87,4090.26,4536.41,4183.59,3890.77,4316.92,4061.03,4455.9,4316.41,4135.38,4811.79,4230.26,4109.23,4428.21,1620,1590,76.283,0,0,0,0,
111,4215.38,4089.74,4536.92,4183.59,3903.08,4320,4055.9,4442.05,4304.1,4138.97,4815.9,4226.15,4101.54,4429.23,1618,1592,76.29,0,0,0,0,
112,4213.85,4091.28,4529.23,4186.67,3897.95,4332.82,4049.74,4425.64,4282.56,4121.54,4811.28,4220.51,4095.9,4425.64,1619,1592,76.298,0,0,0,0,
113,4210.77,4087.18,4524.1,4188.21,3896.92,4332.82,4048.72,4415.38,4266.67,4100.51,4807.18,4220.51,4096.41,4422.56,1619,1591,76.306,0,0,0,0,
114,4211.79,4083.59,4526.15,4187.69,3894.36,4325.64,4061.54,4428.21,4272.31,4107.69,4812.31,4229.23,4103.59,4428.21,1619,1591,76.314,0,0,0,0,
115,4206.15,4081.54,4524.1,4184.62,3876.41,4326.15,4076.92,4449.23,4286.67,4126.67,4811.28,4233.33,4104.62,4430.77,1620,1591,76.322,0,0,0,0,
116,4207.69,4082.56,4528.21,4192.31,3872.82,4324.62,4074.36,4448.21,4294.36,4125.13,4806.67,4227.69,4102.05,4423.08,1619,1592,76.33,0,0,0,0,
117,4216.92,4085.13,4540,4197.95,3886.15,4310.77,4061.03,4443.08,4293.85,4115.9,4812.82,4222.05,4105.13,4420.51,1620,1591,76.337,0,0,0,0,
118,4209.23,4077.95,4529.74,4178.97,3880,4301.54,4057.95,4456.92,4296.41,4117.95,4813.85,4222.05,4105.64,4422.56,1620,1592,76.345,0,0,0,0,
119,4195.38,4064.62,4506.15,4164.1,3866.67,4308.21,4058.97,4462.05,4304.1,4123.08,4802.56,4216.92,4102.56,4416.41,1619,1590,76.353,0,0,0,0,
120,4194.87,4064.1,4504.1,4171.28,3877.44,4315.38,4052.82,4450.77,4308.21,4127.18,4803.08,4206.15,4101.03,4408.72,1619,1591,76.361,0,0,0,0,
121,4192.82,4072.82,4508.72,4170.77,3894.36,4322.05,4048.72,4437.44,4300.51,4125.64,4809.23,4205.13,4105.13,4409.23,1619,1593,76.369,0,0,0,0,
122,4182.56,4075.38,4508.72,4166.67,3897.44,4331.79,4054.36,4429.23,4284.62,4115.38,4807.18,4214.87,4116.92,4411.28,1618,1593,76.376,0,0,0,0,
123,4182.56,4075.38,4516.92,4173.33,3892.31,4328.21,4060,4426.15,4277.44,4113.85,4806.15,4216.92,4121.03,4411.28,1619,1592,76.384,0,0,0,0,
124,4191.79,4071.79,4520.51,4169.23,3880.51,4314.36,4059.49,4423.59,4284.62,4121.03,4811.79,4214.36,4113.85,4412.82,1619,1592,76.392,0,0,0,0,
125,4199.49,4068.72,4517.44,4169.74,3880.51,4310.77,4060,4428.72,4292.31,4121.03,4815.38,4216.41,4120,4418.46,1619,1591,76.4,0,0,0,0,
126,4205.13,4076.41,4523.59,4183.59,3897.44,4319.49,4063.59,4442.05,4287.18,4118.46,4816.41,4223.08,4141.03,4427.69,1619,1592,76.408,0,0,0,0,
127,4203.59,4082.56,4527.18,4181.54,3893.33,4327.18,4060.51,4444.62,4291.28,4125.13,4813.85,4229.23,4146.15,4431.28,1619,1592,76.416,0,0,0,0,
128,4202.56,4073.33,4524.62,4165.13,3863.08,4318.46,4056.92,4444.1,4309.23,4130.26,4810.77,4231.28,4136.92,4425.64,1618,1594,76.423,0,0,0,0,
0,4198.46,4063.08,4525.13,4163.59,3862.05,4304.62,4059.49,4456.92,4304.62,4124.62,4813.33,4226.67,4129.23,4416.41,1620,1594,76.431,0,0,0,0,
1,4190.77,4065.13,4524.1,4175.9,3886.15,4309.23,4062.05,4464.1,4302.05,4128.72,4814.87,4223.59,4121.03,4414.87,1618,1593,76.439,0,0,0,0,
2,4186.67,4067.18,4517.95,4168.21,3886.67,4317.95,4062.05,4452.82,4311.28,4129.23,4811.28,4219.49,4111.28,4414.36,1620,1595,76.447,0,0,0,0,
3,4184.62,4061.03,4517.95,4150.77,3869.23,4316.92,4066.15,4447.18,4298.46,4111.79,4811.79,4215.38,4108.72,4410.77,1619,1593,76.455,0,0,0,0,
4,4191.28,4060,4525.13,4162.05,3871.28,4320.51,4068.21,4447.69,4276.92,4108.21,4812.82,4220,4112.82,4410.77,1619,1596,76.462,0,0,0,0,
5,4190.26,4062.05,4523.59,4173.85,3886.15,4332.82,4062.56,4435.38,4283.59,4126.15,4805.13,4218.97,4115.38,4409.23,1620,1596,76.47,0,0,0,0,
6,4173.85,4058.97,4509.23,4154.87,3872.82,4328.21,4058.97,4423.59,4284.62,4119.49,4790.77,4205.64,4110.26,4400,1620,1598,76.478,0,0,0,0,
7,4170.77,4062.56,4501.03,4149.74,3856.92,4316.92,4059.49,4421.03,4257.44,4097.44,4789.74,4201.54,4104.1,4393.85,1620,1598,76.486,0,0,0,0,
8,4185.64,4075.9,4510.26,4172.31,3879.49,4321.03,4061.03,4424.62,4261.54,4098.97,4803.59,4215.9,4107.18,4404.62,1620,1598,76.494,0,0,0,0,
9,4187.18,4082.56,4522.05,4173.33,3898.46,4323.08,4062.56,4436.41,4290.77,4108.21,4813.33,4223.08,4113.33,4417.95,1620,1597,76.502,0,0,0,0,
10,4183.59,4077.95,4525.13,4164.62,3881.03,4310.26,4057.44,4445.13,4297.44,4117.44,4818.46,4217.95,4117.95,4417.44,1619,1597,76.509,0,0,0,0,
11,4189.23,4070.77,4525.64,4172.31,3873.85,4306.67,4051.79,4446.15,4295.38,4123.08,4818.46,4216.41,4124.1,4405.64,1620,1596,76.517,0,0,0,0,
12,4187.69,4072.82,4523.59,4175.38,3880.51,4316.92,4055.38,4453.85,4301.03,4121.03,4810.77,4216.41,4121.03,4400.51,1618,1595,76.525,0,0,0,0,
13,4184.62,4081.54,4522.56,4173.33,3872.31,4318.46,4065.64,4463.08,4301.03,4122.05,4810.26,4217.95,4114.36,4412.31,1619,1595,76.533,0,0,0,0,
14,4180,4072.82,4524.62,4170.77,3870.77,4318.46,4067.18,4455.38,4289.23,4114.36,4809.74,4216.41,4110.77,4411.28,1619,1594,76.541,0,0,0,0,
15,4168.72,4056.92,4522.05,4166.67,3877.95,4325.13,4063.59,4443.08,4298.97,4102.56,4801.54,4206.67,4103.08,4390.26,1619,1595,76.548,0,0,0,0,
16,4164.1,4065.13,4509.23,4165.13,3877.95,4326.67,4061.03,4432.82,4294.87,4097.95,4794.36,4197.95,4089.23,4380.51,1620,1595,76.556,0,0,0,0,
17,4165.64,4074.87,4503.08,4167.18,3875.9,4324.1,4056.92,4427.18,4272.31,4100,4799.49,4202.56,4084.62,4390.26,1619,1598,76.564,0,0,0,0,
18,4167.18,4067.69,4515.38,4173.85,3871.28,4318.97,4061.03,4437.44,4284.62,4109.74,4811.79,4214.87,4106.67,4396.41,1620,1598,76.572,0,0,0,0,
19,4170.26,4066.15,4525.13,4184.62,3866.67,4313.33,4069.74,4447.18,4297.95,4120,4817.95,4217.44,4125.64,4394.36,1620,1596,76.58,0,0,0,0,
20,4169.23,4072.31,4516.92,4183.59,3875.9,4316.92,4064.62,4440.51,4275.9,4105.64,4812.31,4217.95,4113.85,4395.9,1621,1594,76.588,0,0,0,0,
21,4170.77,4081.03,4516.41,4185.13,3885.64,4323.59,4058.46,4441.03,4276.41,4100,4813.85,4228.72,4105.13,4407.18,1620,1593,76.595,0,0,0,0,
22,4180.51,4090.26,4534.36,4201.54,3874.36,4318.97,4065.13,4456.41,4322.56,4135.9,4827.69,4238.97,4125.13,4417.44,1621,1591,76.603,0,0,0,0,
23,4185.64,4084.1,4540,4200.51,3867.69,4313.85,4066.67,4463.59,4336.41,4149.23,4832.31,4235.38,4143.59,4413.85,1620,1592,76.611,0,0,0,0,
24,4184.62,4075.38,4528.72,4180,3876.92,4311.79,4057.95,4457.44,4305.13,4122.56,4825.64,4226.15,4137.44,4409.74,1621,1596,76.619,0,0,0,0,
25,4182.56,4075.9,4523.08,4177.44,3874.87,4309.74,4058.97,4454.87,4291.28,4110.77,4815.38,4218.97,4123.08,4412.31,1620,1598,76.627,0,0,0,0,
26,4176.41,4071.28,4522.56,4191.28,3866.15,4320,4065.64,4456.41,4294.87,4108.72,4807.69,4211.28,4120,4407.18,1618,1601,76.634,0,0,0,0,
27,4180.51,4067.69,4526.15,4198.97,3871.28,4334.36,4072.31,4455.38,4276.41,4096.41,4807.69,4216.92,4132.31,4409.23,1618,1601,76.642,0,0,0,0,
28,4191.79,4074.36,4532.82,4200.51,3883.59,4333.85,4080.51,4459.49,4260.51,4103.08,4814.36,4229.74,4142.56,4424.62,1617,1599,76.65,0,0,0,0,
29,4187.18,4069.23,4528.72,4200,3880.51,4321.03,4073.33,4456.92,4269.74,4114.87,4813.85,4224.1,4138.46,4425.13,1618,1594,76.658,0,0,0,0,
30,4178.46,4062.56,4522.56,4201.03,3876.92,4320.51,4063.08,4448.21,4273.33,4099.49,4809.23,4214.36,4146.67,4420.51,1618,1590,76.666,0,0,0,0,
31,4185.13,4073.33,4527.18,4203.59,3878.46,4328.72,4071.28,4461.03,4288.72,4100.51,4820.51,4224.1,4176.41,4429.74,1619,1589,76.674,0,0,0,0,
32,4184.62,4073.85,4527.69,4201.03,3875.9,4320.51,4073.85,4475.38,4309.74,4128.72,4838.46,4235.9,4191.79,4434.87,1618,1591,76.681,0,0,0,0,
33,4183.08,4065.13,4527.18,4198.97,3877.95,4312.31,4062.05,4469.74,4309.74,4147.18,4845.13,4232.31,4187.18,4437.44,1618,1596,76.689,0,0,0,0,
34,4195.38,4072.82,4533.85,4201.03,3887.69,4319.49,4063.08,4467.18,4304.62,4139.49,4846.67,4226.15,4193.33,4444.62,1618,1600,76.697,0,0,0,0,
35,4195.38,4080,4528.21,4203.08,3889.23,4322.05,4069.74,4468.72,4283.59,4115.9,4835.38,4217.95,4198.97,4437.44,1617,1601,76.705,0,0,0,0,
36,4182.05,4075.9,4512.82,4204.1,3880.51,4317.44,4066.67,4461.03,4261.54,4117.95,4814.87,4205.64,4185.13,4425.13,1617,1600,76.713,0,0,0,0,
37,4186.15,4075.38,4510.77,4205.13,3884.1,4326.67,4070.26,4456.92,4273.33,4136.92,4819.49,4195.9,4184.1,4429.23,1616,1598,76.72,0,0,0,0,
38,4185.64,4067.69,4511.28,4203.59,3878.46,4328.21,4073.85,4461.03,4292.31,4121.03,4832.31,4188.21,4188.72,4427.18,1617,1592,76.728,0,0,0,0,
39,4165.64,4051.28,4506.15,4197.44,3860.51,4308.21,4063.59,4458.97,4276.92,4097.44,4816.41,4182.56,4162.05,4412.82,1615,1590,76.736,0,0,0,0,
40,4173.33,4059.49,4512.82,4200,3874.87,4306.67,4057.44,4455.38,4256.92,4111.28,4806.67,4183.59,4161.03,4413.33,1617,1590,76.744,0,0,0,0,
41,4204.1,4080,4524.1,4207.69,3901.54,4322.56,4063.08,4456.41,4262.56,4127.18,4833.33,4186.67,4211.28,4426.67,1616,1591,76.752,0,0,0,0,
42,4205.64,4079.49,4517.44,4207.69,3902.05,4325.64,4068.72,4460,4284.1,4124.1,4847.18,4186.67,4233.85,4430.77,1616,1592,76.76,0,0,0,0,
43,4185.64,4069.74,4504.1,4202.56,3889.23,4323.59,4068.21,4460.51,4300,4124.1,4831.28,4184.62,4212.82,4426.67,1617,1596,76.767,0,0,0,0,
44,4183.08,4066.67,4504.1,4201.54,3883.08,4327.69,4064.62,4456.92,4287.69,4127.18,4827.18,4184.1,4207.18,4426.67,1617,1600,76.775,0,0,0,0,
45,4200.51,4067.18,4510.77,4209.74,3885.64,4328.21,4071.28,4459.49,4288.72,4134.87,4845.13,4187.18,4224.1,4431.28,1617,1600,76.783,0,0,0,0,
46,4198.46,4066.67,4506.67,4212.82,3889.23,4323.59,4077.44,4463.59,4301.54,4138.97,4845.64,4188.72,4224.1,4430.77,1616,1600,76.791,0,0,0,0,
47,4172.31,4058.46,4497.95,4200,3881.03,4316.41,4064.62,4457.44,4287.18,4121.03,4828.21,4181.03,4202.05,4425.64,1615,1598,76.799,0,0,0,0,
48,4162.05,4055.38,4499.49,4192.82,3870.77,4307.69,4056.92,4455.38,4279.49,4111.79,4827.69,4174.87,4195.9,4417.95,1616,1597,76.806,0,0,0,0,
49,4174.36,4063.59,4508.21,4202.56,3880,4312.82,4067.69,4464.1,4296.92,4125.13,4832.31,4173.85,4209.74,4413.33,1614,1597,76.814,0,0,0,0,
50,4172.31,4063.59,4505.64,4207.69,3886.67,4315.9,4067.18,4468.21,4301.54,4124.1,4818.46,4171.79,4209.23,4414.87,1615,1597,76.822,0,0,0,0,
51,4151.79,4060,4493.33,4198.97,3875.9,4310.77,4052.82,4453.85,4277.44,4104.62,4808.21,4166.67,4196.92,4412.31,1615,1595,76.83,0,0,0,0,
52,4146.15,4067.18,4493.33,4197.44,3880,4318.46,4052.31,4440,4254.36,4095.9,4817.44,4160,4197.95,4406.15,1616,1595,76.838,0,0,0,0,
53,4162.05,4081.03,4512.82,4207.69,3901.54,4324.62,4063.59,4449.74,4273.33,4108.72,4829.74,4167.18,4211.79,4419.49,1616,1593,76.846,0,0,0,0,
54,4177.95,4088.72,4530.26,4210.26,3904.62,4314.87,4069.23,4462.05,4304.1,4122.56,4831.28,4181.54,4225.13,4433.33,1617,1594,76.853,0,0,0,0,
55,4172.82,4082.56,4523.08,4201.54,3883.59,4312.82,4064.1,4450.77,4297.95,4120.51,4830.77,4175.38,4225.13,4420,1617,1595,76.861,0,0,0,0,
56,4163.59,4076.92,4516.92,4197.95,3876.41,4322.56,4060.51,4444.1,4270.77,4109.74,4829.23,4166.15,4214.87,4410.77,1616,1596,76.869,0,0,0,0,
57,4176.92,4090.26,4530.77,4203.59,3880.51,4317.95,4066.67,4456.92,4269.23,4107.69,4829.23,4181.03,4216.92,4426.67,1617,1596,76.877,0,0,0,0,
58,4184.62,4090.26,4533.85,4206.15,3877.95,4307.69,4068.72,4456.92,4271.79,4107.69,4830.26,4192.82,4222.56,4432.31,1616,1594,76.885,0,0,0,0,
59,4165.13,4070.26,4522.05,4201.03,3877.44,4314.36,4063.08,4446.15,4263.08,4106.67,4828.21,4179.49,4217.95,4416.92,1617,1592,76.893,0,0,0,0,
60,4158.97,4070.26,4522.56,4191.28,3877.44,4316.41,4056.41,4455.9,4304.62,4132.82,4828.72,4174.87,4214.36,4412.31,1615,1590,76.9,0,0,0,0,
61,4166.67,4070.77,4525.13,4178.46,3874.87,4308.21,4058.46,4466.67,4340,4142.05,4827.69,4184.1,4206.67,4415.9,1616,1590,76.908,0,0,0,0,
62,4158.97,4059.49,4519.49,4187.69,3877.95,4316.41,4070.26,4458.97,4294.87,4101.54,4821.54,4183.59,4196.92,4409.74,1616,1591,76.916,0,0,0,0,
63,4150.26,4071.79,4520,4206.15,3884.1,4329.74,4073.85,4450.26,4252.31,4083.59,4824.62,4179.49,4202.05,4405.64,1617,1592,76.924,0,0,0,0,
64,4153.85,4080.51,4523.08,4189.23,3881.03,4318.46,4056.92,4443.08,4268.21,4112.82,4833.85,4180,4204.1,4410.77,1617,1593,76.932,0,0,0,0,
65,4153.33,4066.67,4519.49,4167.18,3875.9,4309.74,4044.62,4435.9,4274.36,4119.49,4832.31,4183.59,4188.21,4413.85,1618,1593,76.939,0,0,0,0,
66,4150.77,4069.23,4521.03,4181.03,3877.95,4321.54,4052.82,4436.92,4250.26,4096.92,4823.59,4191.28,4178.97,4414.36,1618,1591,76.947,0,0,0,0,
67,4159.49,4078.97,4526.15,4196.41,3877.44,4314.87,4061.03,4446.67,4271.79,4105.13,4825.64,4195.38,4188.72,4415.9,1616,1592,76.955,0,0,0,0,
68,4162.05,4071.28,4523.59,4186.15,3873.33,4303.59,4060,4453.85,4305.64,4129.74,4834.87,4194.87,4189.23,4413.85,1617,1590,76.963,0,0,0,0,
69,4156.41,4067.18,4528.21,4183.08,3874.36,4317.44,4066.67,4461.03,4294.36,4126.15,4836.92,4195.38,4183.59,4412.82,1615,1590,76.971,0,0,0,0,
70,4153.85,4070.77,4536.41,4190.77,3877.44,4324.62,4073.33,4468.21,4287.69,4118.97,4829.74,4192.82,4183.59,4415.38,1616,1591,76.979,0,0,0,0,
71,4151.79,4065.64,4526.15,4186.15,3868.21,4313.33,4069.23,4466.67,4297.95,4128.21,4829.74,4188.21,4176.41,4411.79,1615,1591,76.986,0,0,0,0,
72,4151.79,4063.59,4518.46,4170.26,3856.92,4308.72,4068.72,4458.46,4284.1,4129.23,4842.05,4195.38,4169.74,4408.72,1615,1592,76.994,0,0,0,0,
73,4166.67,4073.33,4533.85,4166.15,3868.21,4308.21,4076.92,4461.54,4267.18,4117.95,4845.64,4205.13,4182.56,4420.51,1615,1591,77.002,0,0,0,0,
74,4181.54,4081.54,4544.62,4183.08,3883.08,4309.74,4080,4473.33,4296.92,4123.08,4833.33,4204.1,4186.67,4427.69,1615,1590,77.01,0,0,0,0,
75,4161.03,4075.9,4535.38,4186.67,3871.79,4317.95,4067.69,4464.62,4312.82,4125.64,4823.08,4200.51,4171.28,4415.38,1615,1590,77.018,0,0,0,0,
76,4145.64,4070.26,4533.33,4172.31,3856.41,4316.92,4055.38,4448.72,4280.51,4120.51,4830.26,4202.56,4171.28,4413.33,1616,1590,77.025,0,0,0,0,
77,4167.69,4081.54,4547.18,4171.28,3872.31,4306.15,4064.1,4464.62,4285.13,4136.92,4847.69,4217.95,4188.72,4433.33,1617,1588,77.033,0,0,0,0,
78,4173.33,4078.97,4547.69,4163.59,3886.15,4310.77,4078.46,4478.97,4312.82,4147.69,4845.13,4225.64,4187.18,4436.41,1617,1590,77.041,0,0,0,0,
79,4147.69,4057.44,4522.56,4141.54,3872.82,4319.49,4069.74,4460,4292.82,4123.08,4824.62,4207.69,4170.26,4413.33,1619,1589,77.049,0,0,0,0,
80,4145.64,4060,4507.69,4144.1,3868.72,4317.44,4061.54,4454.87,4277.44,4115.38,4826.15,4196.41,4171.28,4405.64,1619,1591,77.057,0,0,0,0,
81,4167.18,4075.38,4517.95,4155.9,3875.9,4314.87,4077.95,4478.46,4301.03,4148.21,4842.05,4209.23,4187.69,4421.03,1620,1593,77.065,0,0,0,0,
82,4163.08,4066.67,4523.08,4149.23,3868.21,4315.9,4088.72,4483.59,4308.72,4161.54,4836.41,4214.36,4191.79,4422.56,1619,1593,77.072,0,0,0,0,
83,4157.95,4051.79,4527.69,4150.77,3859.49,4313.33,4079.49,4474.36,4302.56,4141.03,4825.64,4210.26,4183.08,4417.95,1619,1595,77.08,0,0,0,0,
84,4160.51,4048.21,4534.36,4152.31,3864.62,4309.23,4070.26,4474.87,4307.69,4134.87,4831.79,4214.87,4169.23,4424.62,1620,1593,77.088,0,0,0,0,
85,4145.64,4049.23,4528.21,4142.56,3867.69,4310.26,4066.15,4472.82,4300,4136.92,4836.92,4215.38,4163.59,4422.56,1618,1592,77.096,0,0,0,0,
86,4137.95,4056.92,4525.13,4152.31,3863.08,4313.33,4064.1,4465.64,4287.69,4123.08,4828.72,4207.69,4166.67,4409.23,1619,1590,77.104,0,0,0,0,
87,4151.28,4066.67,4537.95,4171.79,3866.15,4308.72,4068.21,4461.03,4297.95,4128.72,4827.18,4211.28,4164.1,4410.77,1618,1589,77.112,0,0,0,0,
88,4153.85,4063.59,4541.54,4162.56,3866.67,4303.59,4065.64,4456.92,4301.03,4138.46,4827.18,4215.9,4154.87,4416.92,1618,1590,77.119,0,0,0,0,
